File: xdidata/Mn/Mn-Bixbyite.xdi
# XDI/1.0 BlueSky/1.10.0 BMM/2023-1.0-py310-tiled
# Beamline.name: BMM (06BM) -- Beamline for Materials Measurement (NIST)
# Beamline.xray_source: NSLS-II three-pole wiggler
# Beamline.collimation: paraboloid mirror, 5 nm Rh on 30 nm Pt
# Beamline.focusing: not in use
# Beamline.harmonic_rejection: flat mirror, Si stripe, pitch = 7.0 mrad relative to beam
# Beamline.software: Bluesky 1.10.0, Ophyd 1.7.0, DataBroker 2.0.0b13, Python 3.10.8, 2023-1.0-py310-tiled
# Detector.I0: 10 cm N2
# Detector.I1: 25 cm N2
# Detector.I2: 25 cm N2
# Element.symbol: Mn
# Element.edge: K
# Element.reference: Mn
# Element.reference_material: Mn metal powder
# Facility.name: NSLS-II
# Facility.energy: 3.0
# Facility.current: 399.4
# Facility.mode: top-off
# Facility.GUP: 123456
# Facility.SAF: 301027
# Facility.cycle: 2023-2
# Mono.name: Si(111)
# Mono.d_spacing: 3.13519
# Mono.encoder_resolution: 0.0000050 deg/ct
# Mono.angle_offset: 16.0754 deg
# Mono.scan_mode: pseudo channel cut
# Mono.scan_type: step
# Mono.direction: forward in energy
# Sample.name: Mn2O3
# Sample.prep: powder on tape
# Sample.x: 123.848 mm
# Sample.y: 114.690 mm
# Sample.SDD_position: 205.000 mm
# Scan.experimenters: Bruce Ravel
# Scan.edge_energy: 6539.0
# Scan.start_time: 2023-05-08T11:20:18
# Scan.end_time: 2023-05-08T11:28:20
# Scan.transient_id: 75368
# Scan.uid: 0b910304-90be-4c4d-b50a-b0a22d34e52a
# Scan.plot_hint: ln(I0/It)  --  ln($5/$6)
# Column.1: energy eV
# Column.2: requested_energy eV
# Column.3: measurement_time seconds
# Column.4: xmu
# Column.5: I0 nA
# Column.6: It nA
# Column.7: Ir nA
# ///////////
# Welcome to BMM
# -----------
# energy  requested_energy  measurement_time  xmu  I0  It  Ir
  6339.001  6339.000  0.500  2.388038  150.443  13.8121  0.707224
  6369.006  6369.000  0.500  2.345515  151.133  14.4782  0.771544
  6399.010  6399.000  0.500  2.304076  151.735  15.1509  0.839877
  6429.012  6429.000  0.500  2.263297  152.845  15.8969  0.914974
  6459.015  6459.000  0.500  2.223368  152.903  16.5508  0.987681
  6489.704  6489.000  0.500  2.184339  153.657  17.2945  1.066511
  6510.982  6511.000  0.500  2.157591  154.082  17.8124  1.113301
  6516.987  6517.000  0.500  2.150963  154.168  17.9408  1.120294
  6522.992  6523.000  0.500  2.144151  154.256  18.0737  1.120132
  6528.998  6529.000  0.500  2.138798  154.327  18.1791  1.100499
  6529.884  6529.900  0.500  2.138830  154.303  18.1757  1.092492
  6530.784  6530.800  0.500  2.137355  154.301  18.2023  1.084478
  6531.691  6531.700  0.500  2.137330  154.311  18.204  1.072253
  6532.586  6532.600  0.500  2.136435  154.323  18.2217  1.058413
  6533.487  6533.500  0.500  2.136548  154.307  18.2178  1.037222
  6534.392  6534.400  0.500  2.136430  154.306  18.2197  1.009078
  6535.296  6535.300  0.500  2.136773  154.323  18.2155  0.964564
  6536.193  6536.200  0.500  2.137266  154.309  18.2049  0.891585
  6537.090  6537.100  0.500  2.139813  154.319  18.1598  0.733647
  6537.998  6538.000  0.500  2.145538  154.307  18.0547  0.418144
  6538.900  6538.900  0.500  2.165624  154.288  17.6935  0.190854
  6539.796  6539.800  0.500  2.180625  154.284  17.4296  0.124439
  6540.696  6540.700  0.500  2.181899  154.303  17.4095  0.093574
  6541.598  6541.600  0.500  2.190819  154.299  17.2545  0.080865
  6542.498  6542.500  0.500  2.199407  154.282  17.1051  0.078425
  6543.393  6543.400  0.500  2.206723  154.288  16.981  0.069008
  6544.294  6544.300  0.500  2.215468  154.289  16.8333  0.058533
  6545.199  6545.200  0.500  2.235086  154.287  16.5061  0.052103
  6546.098  6546.100  0.500  2.279106  154.264  15.7929  0.044334
  6546.994  6547.000  0.500  2.355512  154.275  14.6322  0.034182
  6547.900  6547.900  0.500  2.445576  154.282  13.3726  0.024935
  6548.800  6548.800  0.500  2.524436  154.279  12.3583  0.018389
  6549.697  6549.700  0.500  2.618755  154.27  11.2453  0.013188
  6550.601  6550.600  0.500  2.701654  154.255  10.3496  0.009698
  6551.501  6551.500  0.500  2.782807  154.24  9.541997  0.007349
  6552.398  6552.400  0.500  2.880721  154.243  8.652133  0.005473
  6553.302  6553.300  0.500  2.995534  154.241  7.713586  0.004161
  6554.204  6554.200  0.500  3.094978  154.229  6.982857  0.003395
  6555.100  6555.100  0.500  3.163178  154.253  6.523552  0.002883
  6556.001  6556.000  0.500  3.198337  154.289  6.299624  0.002914
  6556.903  6556.900  0.500  3.209413  154.272  6.229539  0.003042
  6557.804  6557.800  0.500  3.213896  154.265  6.201408  0.003189
  6558.699  6558.700  0.500  3.212298  154.281  6.211974  0.003572
  6559.604  6559.600  0.500  3.185357  154.28  6.381549  0.003849
  6560.500  6560.500  0.500  3.143935  154.288  6.651778  0.004194
  6561.397  6561.400  0.500  3.112696  154.205  6.859174  0.004314
  6562.303  6562.300  0.500  3.099065  153.964  6.942462  0.004355
  6563.205  6563.200  0.500  3.091574  154.251  7.007686  0.004169
  6564.005  6564.000  0.500  3.083869  154.291  7.063735  0.004106
  6567.031  6567.010  0.500  3.034438  154.308  7.422482  0.004232
  6570.192  6570.200  0.500  3.014013  154.332  7.576811  0.004441
  6573.554  6573.560  0.500  3.013753  154.36  7.580156  0.004344
  6577.080  6577.080  0.500  2.950908  154.445  8.076254  0.004424
  6580.786  6580.780  0.500  2.871710  154.453  8.742368  0.004379
  6584.655  6584.650  0.500  2.821094  154.478  9.197766  0.004332
  6588.704  6588.700  0.500  2.808489  154.965  9.343769  0.004683
  6592.918  6592.910  0.500  2.822624  155.026  9.216286  0.005080
  6597.298  6597.290  0.500  2.874572  155.082  8.752863  0.005414
  6601.858  6601.850  0.500  2.912437  155.079  8.427503  0.005504
  6606.587  6606.580  0.500  2.919798  155.12  8.367874  0.005214
  6611.493  6611.480  0.500  2.903888  155.189  8.505869  0.004888
  6616.557  6616.550  0.500  2.880236  155.183  8.709087  0.004794
  6621.795  6621.790  0.500  2.865206  155.165  8.839958  0.004938
  6627.220  6627.210  0.500  2.874481  155.21  8.760886  0.005037
  6632.801  6632.790  0.500  2.875865  155.216  8.749129  0.005338
  6638.561  6638.550  0.500  2.862350  155.24  8.869546  0.005303
  6644.491  6644.480  0.500  2.860263  155.258  8.889082  0.005226
  6650.591  6650.580  0.500  2.843484  155.275  9.040507  0.005532
  6656.862  6656.850  0.500  2.802956  155.281  9.414781  0.005930
  6663.305  6663.290  0.500  2.766066  155.284  9.768736  0.006510
  6669.907  6669.900  0.500  2.755200  155.288  9.875754  0.006391
  6676.700  6676.690  0.500  2.767922  155.258  9.749046  0.005951
  6683.651  6683.650  0.500  2.781339  155.282  9.620541  0.006073
  6690.782  6690.770  0.500  2.783247  155.251  9.600295  0.006039
  6698.076  6698.070  0.500  2.772384  155.212  9.702744  0.006310
  6705.557  6705.550  0.500  2.749205  155.183  9.928376  0.006965
  6713.200  6713.190  0.500  2.723000  155.164  10.1908  0.007220
  6721.011  6721.000  0.500  2.713446  155.111  10.2851  0.007335
  6729.000  6728.990  0.500  2.705831  155.1  10.363  0.007404
  6737.161  6737.150  0.500  2.695378  155.016  10.4662  0.007492
  6745.481  6745.470  0.500  2.691195  154.897  10.502  0.007545
  6753.977  6753.970  0.500  2.680493  154.842  10.6112  0.008122
  6762.664  6762.650  0.500  2.657781  154.764  10.8495  0.008291
  6771.497  6771.490  0.500  2.631485  154.693  11.1335  0.008556
  6780.526  6780.500  0.500  2.614066  154.659  11.3266  0.009149
  6789.705  6789.690  0.500  2.606070  154.62  11.4147  0.009534
  6799.060  6799.050  0.500  2.599329  154.069  11.4509  0.009899
  6808.588  6808.570  0.500  2.593069  154.104  11.5255  0.009939
  6818.287  6818.270  0.500  2.582336  153.953  11.6384  0.009938
  6828.161  6828.150  0.500  2.565153  153.619  11.8144  0.010317
  6838.201  6838.190  0.500  2.546937  153.33  12.009  0.010721
  6848.409  6848.400  0.500  2.531771  153.141  12.1775  0.011133
  6858.804  6858.790  0.500  2.517217  153.082  12.3512  0.011546
  6869.356  6869.350  0.500  2.501745  153.049  12.5411  0.012173
  6880.088  6880.080  0.500  2.488173  152.972  12.7061  0.012679
  6890.989  6890.980  0.500  2.475561  152.827  12.8552  0.013001
  6902.060  6902.050  0.500  2.461366  152.637  13.0228  0.013415
  6913.309  6913.290  0.500  2.444309  152.316  13.2189  0.013804
  6924.718  6924.710  0.500  2.427513  151.983  13.4134  0.014433
  6936.301  6936.290  0.500  2.412176  151.751  13.5999  0.014864
  6948.061  6948.050  0.500  2.399203  151.498  13.7545  0.015244
  6959.992  6959.980  0.500  2.385503  151.28  13.9242  0.015735
  6972.086  6972.080  0.500  2.370620  151.07  14.1134  0.016583
  6984.357  6984.350  0.500  2.356181  150.734  14.2868  0.017239
  6996.802  6996.790  0.500  2.341390  150.429  14.4703  0.017700
  7009.413  7009.410  0.500  2.325019  150.085  14.6755  0.018411
  7022.191  7022.190  0.500  2.307614  149.754  14.9002  0.019177
  7035.161  7035.150  0.500  2.291220  149.365  15.1072  0.019883
  7048.291  7048.280  0.500  2.274864  148.939  15.3126  0.020455
  7061.588  7061.580  0.500  2.259887  148.56  15.504  0.021217
  7075.068  7075.050  0.500  2.245176  147.055  15.5744  0.021821
  7088.712  7088.700  0.500  2.230121  147.678  15.8776  0.022839
  7102.502  7102.510  0.500  2.213653  147.261  16.0957  0.023639
  7116.496  7116.500  0.500  2.196812  147.089  16.3499  0.024510
  7130.656  7130.660  0.500  2.180809  146.068  16.4985  0.025264
  7145.028  7144.990  0.500  2.164714  145.617  16.7143  0.026066
  7159.523  7159.490  0.500  2.148499  145.202  16.9391  0.027055
  7174.179  7174.160  0.500  2.133642  144.603  17.1217  0.028078
  7189.006  7189.000  0.500  2.117735  144.07  17.3322  0.028997
  7204.001  7204.020  0.500  2.101115  143.415  17.5425  0.030199
  7219.185  7219.200  0.500  2.084146  142.755  17.7607  0.031129
  7234.550  7234.560  0.500  2.066965  142.264  18.0062  0.032705
  7250.069  7250.090  0.500  2.050550  141.623  18.2218  0.033703
  7265.790  7265.790  0.500  2.034350  140.087  18.3185  0.034737
  7281.648  7281.660  0.500  2.018951  141.134  18.7418  0.036433
  7297.713  7297.710  0.500  2.003009  140.506  18.9583  0.037775
  7313.903  7313.920  0.500  1.986675  140.056  19.2088  0.039249
  7330.286  7330.310  0.500  1.970013  139.495  19.4533  0.040783
  7346.880  7346.870  0.500  1.953250  138.898  19.6974  0.042560
  7363.583  7363.600  0.500  1.937106  138.273  19.9279  0.043759
  7380.479  7380.500  0.500  1.920243  137.673  20.1789  0.045699
  7391.837  7391.860  0.500  1.909469  137.25  20.3348  0.046762