File: xdidata/Mn/Mn-K-Pennantite.xdi
# XDI/1.0 BlueSky/1.5.3
# Beamline.name: 6BM
# Beamline.xray_source: NSLS-II three-pole wiggler
# Beamline.collimation: paraboloid mirror, 5 nm Rh on 30 nm Pt
# Beamline.focusing: not in use
# Beamline.harmonic_rejection: flat mirror, Si stripe, pitch = 7.0 mrad relative to beam
# Detector.i0: 10 cm N2
# Detector.i1: 25 cm N2
# Detector.i2: 25 cm N2
# Element.symbol: Mn
# Element.edge: K
# Facility.name: NSLS-II
# Facility.energy: 3.0
# Facility.current: 399.8
# Facility.mode: top-off
# Facility.gup: 305081
# Facility.saf: 305123
# Mono.name: Si(111)
# Mono.d_spacing: 3.13532
# Mono.encoder_resolution: 0.0000050 deg/ct
# Mono.angle_offset: 16.0581 deg
# Mono.scan_mode: fixed exit
# Mono.scan_type: step
# Mono.direction: forward in energy
# Sample.name: Mn9Al6Si5O20(OH)16
# Sample.prep: Powder in polyethylene glycol pellet
# Sample.x_position: -120.140 mm
# Sample.y_position: 112.312 mm
# Scan.experimenters: Neil Hyatt, Martin Stennett, Lucy Mottram
# Scan.edge_energy: 6539.0
# Scan.start_time: 2019-11-11T17:15:46
# Scan.end_time: 2019-11-12T03:18:48
# Scan.transient_id: 17905
# Scan.uid: 9c8bfa9d-e248-4b07-a703-e2380b455f0d
# Scan.plot_hint: ln(I0/It)  --  ln($5/$6)
# Scan.sequence: merge of 3 scans
# Column.1: energy eV
# Column.2: requested_energy eV
# Column.3: measurement_time seconds
# Column.4: mutrans
# Column.5: i0
# Column.6: itrans
# Column.7: irefer
# /////
#  Harstigen Mine, Persberg, Sweden
# -----
# energy   requested_energy   measurement_time   mutrans   i0   itrans   irefer
6339 6339 0.500000 2.048874 89.6305 11.5517 2.650540
6379.02 6379 0.500000 2.000270 90.4483 12.2377 2.887011
6419.01 6419 0.500000 1.952955 91.1669 12.9325 3.134474
6459.01 6459 0.500000 1.906755 91.3664 13.5736 3.376680
6499 6499 0.500000 1.861540 92.2422 14.3375 3.655839
6515 6515 0.500000 1.844098 92.4778 14.6271 3.762749
6523.08 6523 0.500000 1.835461 92.7223 14.7938 3.818283
6529.09 6529.1 0.500000 1.829338 92.7885 14.8943 3.845937
6529.53 6529.5 0.500000 1.828925 92.76 14.8963 3.846017
6529.89 6529.9 0.500000 1.828524 92.7474 14.8998 3.846469
6530.29 6530.3 0.500000 1.828163 92.7386 14.9038 3.847174
6530.69 6530.7 0.500000 1.827691 92.7278 14.909 3.846640
6531.11 6531.1 0.500000 1.827316 92.7265 14.9146 3.847896
6531.49 6531.5 0.500000 1.826910 92.7199 14.9193 3.847340
6531.9 6531.9 0.500000 1.826643 92.7119 14.9222 3.847124
6532.31 6532.3 0.500000 1.826220 92.713 14.9287 3.846297
6532.7 6532.7 0.500000 1.825848 92.7108 14.9339 3.845330
6533.1 6533.1 0.500000 1.825476 92.7005 14.9378 3.844441
6533.5 6533.5 0.500000 1.825208 92.7157 14.9442 3.842371
6533.9 6533.9 0.500000 1.824769 92.7073 14.9494 3.839246
6534.3 6534.3 0.500000 1.824415 92.7193 14.9566 3.836379
6534.7 6534.7 0.500000 1.824175 92.716 14.9597 3.830333
6535.1 6535.1 0.500000 1.823871 92.7114 14.9635 3.821713
6535.5 6535.5 0.500000 1.823628 92.6994 14.9652 3.810019
6535.9 6535.9 0.500000 1.823331 92.6828 14.967 3.792233
6536.3 6536.3 0.500000 1.823094 92.7295 14.9781 3.767016
6536.7 6536.7 0.500000 1.822978 92.8039 14.9919 3.724443
6537.1 6537.1 0.500000 1.822789 92.7978 14.9938 3.644463
6537.5 6537.5 0.500000 1.822900 92.7898 14.9908 3.523112
6537.9 6537.9 0.500000 1.823122 92.8992 15.0052 3.394549
6538.3 6538.3 0.500000 1.823745 92.8921 14.9948 3.289533
6538.7 6538.7 0.500000 1.824508 92.8991 14.9844 3.212565
6539.1 6539.1 0.500000 1.824654 92.9079 14.9836 3.155807
6539.5 6539.5 0.500000 1.824464 93.0157 15.0038 3.113941
6539.9 6539.9 0.500000 1.823859 93.0064 15.0113 3.076521
6540.3 6540.3 0.500000 1.822934 93.0065 15.0252 3.046360
6540.7 6540.7 0.500000 1.822503 93.0011 15.0308 3.023012
6541.1 6541.1 0.500000 1.822491 93.0005 15.0309 3.009182
6541.5 6541.5 0.500000 1.822694 92.9939 15.0268 3.003811
6541.9 6541.9 0.500000 1.823282 92.9927 15.0178 2.997802
6542.3 6542.3 0.500000 1.824298 92.9868 15.0016 2.982149
6542.7 6542.7 0.500000 1.826104 92.9825 14.974 2.956303
6543.1 6543.1 0.500000 1.829293 92.963 14.9227 2.921658
6543.5 6543.5 0.500000 1.834111 92.9571 14.85 2.883555
6543.9 6543.9 0.500000 1.840496 92.9549 14.7551 2.842723
6544.3 6544.3 0.500000 1.848202 92.9475 14.6412 2.798823
6544.7 6544.7 0.500000 1.856169 92.9418 14.5237 2.753298
6545.1 6545.1 0.500000 1.863841 92.9359 14.4118 2.706547
6545.5 6545.5 0.500000 1.872367 92.9281 14.2887 2.656734
6545.9 6545.9 0.500000 1.883318 92.9065 14.1303 2.598290
6546.3 6546.3 0.500000 1.898477 92.9008 13.9151 2.527181
6546.7 6546.7 0.500000 1.917631 92.9004 13.6511 2.447395
6547.1 6547.1 0.500000 1.938988 92.8888 13.3631 2.364449
6547.5 6547.5 0.500000 1.961654 92.8793 13.0611 2.279531
6547.9 6547.9 0.500000 1.985073 92.8796 12.7589 2.196034
6548.3 6548.3 0.500000 2.008129 92.8733 12.4677 2.115190
6548.7 6548.7 0.500000 2.028973 92.8645 12.2093 2.041388
6549.1 6549.1 0.500000 2.043491 92.8323 12.0285 1.982987
6549.51 6549.5 0.500000 2.050211 92.9299 11.9607 1.944415
6549.9 6549.9 0.500000 2.050624 92.9207 11.9546 1.918331
6550.3 6550.3 0.500000 2.048159 92.9192 11.984 1.898773
6550.7 6550.7 0.500000 2.043960 92.8926 12.0316 1.884446
6551.1 6551.1 0.500000 2.037909 92.9962 12.1173 1.877291
6551.49 6551.5 0.500000 2.030808 92.9799 12.201 1.869648
6551.9 6551.9 0.500000 2.024115 92.9573 12.2808 1.861991
6552.3 6552.3 0.500000 2.018182 92.9501 12.3529 1.854565
6552.7 6552.7 0.500000 2.012144 93.0472 12.4406 1.851032
6553.1 6553.1 0.500000 2.004371 93.0313 12.5354 1.850494
6553.5 6553.5 0.500000 1.993945 93.0189 12.6652 1.856440
6553.9 6553.9 0.500000 1.981820 93.022 12.8208 1.869711
6554.3 6554.3 0.500000 1.970520 93.0122 12.9643 1.884968
6554.7 6554.7 0.500000 1.961533 93.0039 13.0805 1.899885
6555.1 6555.1 0.500000 1.954839 93.014 13.1697 1.913840
6555.5 6555.5 0.500000 1.950091 93.0076 13.2313 1.928043
6555.9 6555.9 0.500000 1.946657 92.9759 13.2724 1.942941
6556.3 6556.3 0.500000 1.944104 92.9876 13.308 1.958048
6556.7 6556.7 0.500000 1.942466 92.9675 13.327 1.973489
6557.1 6557.1 0.500000 1.942304 92.9776 13.3305 1.987528
6557.5 6557.5 0.500000 1.944102 92.9656 13.3049 1.995529
6557.9 6557.9 0.500000 1.947578 92.9691 13.2588 2.000044
6558.3 6558.3 0.500000 1.952698 92.9578 13.1898 1.998852
6558.7 6558.7 0.500000 1.958934 92.9687 13.1096 1.993693
6559.09 6559.1 0.500000 1.965421 92.9568 13.0235 1.987591
6559.5 6559.5 0.500000 1.971422 92.9458 12.9436 1.979974
6559.9 6559.9 0.500000 1.975633 92.9187 12.8852 1.973357
6560.3 6560.3 0.500000 1.977977 92.8417 12.8446 1.969095
6560.7 6560.7 0.500000 1.978681 92.7404 12.8215 1.965569
6561.1 6561.1 0.500000 1.978779 92.7622 12.8233 1.964722
6561.5 6561.5 0.500000 1.978405 92.8825 12.8447 1.966890
6561.9 6561.9 0.500000 1.977704 92.9116 12.8577 1.966867
6562.3 6562.3 0.500000 1.976512 92.9276 12.8752 1.967938
6562.7 6562.7 0.500000 1.974187 93.0389 12.9206 1.972827
6563.1 6563.1 0.500000 1.971279 93.0346 12.9579 1.976225
6563.5 6563.5 0.500000 1.967932 93.0367 13.0018 1.981001
6563.9 6563.9 0.500000 1.964141 93.0379 13.0507 1.986828
6564.3 6564.3 0.500000 1.960021 93.1353 13.1185 1.996481
6564.7 6564.7 0.500000 1.955207 93.1397 13.1823 2.004539
6565.1 6565.1 0.500000 1.949720 93.1305 13.254 2.015344
6565.5 6565.5 0.500000 1.943951 93.222 13.3443 2.028639
6565.9 6565.9 0.500000 1.938168 93.2264 13.4223 2.039826
6566.3 6566.3 0.500000 1.932791 93.229 13.4946 2.051620
6566.7 6566.7 0.500000 1.928183 93.2018 13.5529 2.060237
6567.1 6567.1 0.500000 1.924321 93.1915 13.6034 2.068528
6567.5 6567.5 0.500000 1.920806 93.2024 13.653 2.077127
6567.9 6567.9 0.500000 1.917156 93.186 13.7004 2.085303
6568.3 6568.3 0.500000 1.913655 93.1927 13.7496 2.093662
6568.7 6568.7 0.500000 1.910054 93.1947 13.7997 2.102762
6570.09 6570.08 0.710000 1.897987 132.319 19.8305 3.027006
6574.59 6574.58 0.760000 1.884498 141.716 21.5274 3.282612
6579.4 6579.39 0.810000 1.891196 151.093 22.7988 3.438492
6584.52 6584.51 0.860000 1.910436 160.451 23.7495 3.551811
6589.94 6589.93 0.910000 1.912074 169.854 25.0999 3.822786
6595.66 6595.65 0.960000 1.918261 179.327 26.3365 4.084248
6601.69 6601.68 1.010000 1.899880 188.388 28.1804 4.419044
6608.02 6608.01 1.060000 1.889672 198.294 29.9666 4.683147
6614.66 6614.65 1.110000 1.880223 207.684 31.6833 4.921411
6621.61 6621.6 1.160000 1.865378 217.149 33.6227 5.238020
6628.85 6628.84 1.210000 1.856780 226.621 35.3926 5.567619
6636.41 6636.4 1.260000 1.850887 236.27 37.1176 5.874668
6644.27 6644.26 1.310000 1.844312 246.05 38.9092 6.188193
6652.42 6652.42 1.360000 1.836697 255.579 40.725 6.550227
6660.9 6660.89 1.410000 1.830674 265.41 42.547 6.896086
6669.67 6669.66 1.460000 1.821615 274.983 44.4828 7.216002
6678.74 6678.74 1.510000 1.813958 284.525 46.3798 7.540992
6688.12 6688.12 1.560000 1.801031 294.037 48.554 7.954361
6697.8 6697.8 1.610000 1.786270 303.654 50.8877 8.438956
6707.79 6707.79 1.660000 1.777123 313.1 52.9524 8.879731
6718.09 6718.09 1.710000 1.767392 322.662 55.103 9.299504
6728.7 6728.69 1.760000 1.756436 332.098 57.3396 9.727043
6739.6 6739.6 1.810000 1.744336 341.457 59.6728 10.1807
6750.81 6750.81 1.860000 1.734028 350.632 61.9112 10.6602
6762.32 6762.32 1.910000 1.722411 359.707 64.2554 11.1754
6774.13 6774.14 1.960000 1.711408 368.803 66.609 11.6964
6786.27 6786.27 2.010000 1.697209 377.996 69.2458 12.2885
6798.7 6798.7 2.060000 1.683192 387.407 71.9715 12.8869
6811.43 6811.43 2.110000 1.670578 372.181 70.0203 12.6272
6824.48 6824.47 2.160000 1.658347 402.916 76.7362 13.945
6837.82 6837.82 2.210000 1.646279 412.53 79.5197 14.5901
6851.47 6851.47 2.260000 1.633045 420.959 82.2258 15.2424
6865.43 6865.42 2.310000 1.618931 429.037 84.9948 15.9219
6879.69 6879.68 2.360000 1.605815 438.452 88.0068 16.6519
6894.24 6894.24 2.410000 1.592064 447.871 91.1419 17.4069
6909.11 6909.11 2.460000 1.577630 456.433 94.2349 18.1613
6924.29 6924.28 2.510000 1.563102 464.56 97.3166 18.9366
6939.76 6939.76 2.560000 1.548698 472.868 100.494 19.7519
6955.54 6955.54 2.610000 1.534268 481.526 103.822 20.6137
6971.64 6971.63 2.660000 1.519839 490.328 107.257 21.5225
6988.02 6988.02 2.710000 1.504870 498.894 110.775 22.462
7004.72 7004.72 2.760000 1.490087 506.778 114.202 23.3915
7021.73 7021.72 2.810000 1.475141 514.493 117.687 24.3491
7039.04 7039.03 2.860000 1.459848 521.98 121.239 25.345
7056.64 7056.64 2.910000 1.444691 529.244 124.804 26.3658
7074.56 7074.56 2.960000 1.430092 532.403 127.395 27.2001
7092.78 7092.78 3.010000 1.416289 544.444 132.087 28.5032
7111.31 7111.3 3.060000 1.426947 550.924 132.241 28.8264
7130.13 7130.13 3.110000 2.067602 531.873 67.2748 14.7568
7149.28 7149.27 3.160000 1.860990 546.803 85.0349 18.866
7168.71 7168.71 3.210000 2.029225 556.867 73.1921 16.4142
7188.45 7188.45 3.260000 1.973813 561.99 78.0736 17.7006
7208.51 7208.5 3.310000 1.921072 570.551 83.5558 19.1506
7228.86 7228.86 3.360000 1.916346 577.605 84.9892 19.6951
7249.52 7249.52 3.410000 1.911378 582.742 86.1724 20.1885
7270.49 7270.48 3.460000 1.871519 591.03 90.9524 21.5437
7281.08 7281.08 3.490000 1.863230 584.796 90.7417 21.6111