File: xdidata/Mn/Mn-K-Macfallite.xdi
# XDI/1.0 BlueSky/1.5.3
# Beamline.name: 6BM
# Beamline.xray_source: NSLS-II three-pole wiggler
# Beamline.collimation: paraboloid mirror, 5 nm Rh on 30 nm Pt
# Beamline.focusing: not in use
# Beamline.harmonic_rejection: flat mirror, Si stripe, pitch = 7.0 mrad relative to beam
# Detector.i0: 10 cm N2
# Detector.i1: 25 cm N2
# Detector.i2: 25 cm N2
# Element.symbol: Mn
# Element.edge: K
# Facility.name: NSLS-II
# Facility.energy: 3.0
# Facility.current: 400.9
# Facility.mode: top-off
# Facility.gup: 305081
# Facility.saf: 305123
# Mono.name: Si(111)
# Mono.d_spacing: 3.13532
# Mono.encoder_resolution: 0.0000050 deg/ct
# Mono.angle_offset: 16.0581 deg
# Mono.scan_mode: fixed exit
# Mono.scan_type: step
# Mono.direction: forward in energy
# Sample.name: Ca2Mn3(SiO4)(Si2O7)(OH)3
# Sample.prep: Powder in polyethylene glycol pellet
# Sample.x_position: -120.140 mm
# Sample.y_position: 112.312 mm
# Scan.experimenters: Neil Hyatt, Martin Stennett, Lucy Mottram
# Scan.edge_energy: 6539.0
# Scan.start_time: 2019-11-11T14:40:07
# Scan.end_time: 2019-11-12T00:44:04
# Scan.transient_id: 17897
# Scan.uid: 3649bb4e-08b9-4658-bb13-b80cc3aa5441
# Scan.plot_hint: ln(I0/It)  --  ln($5/$6)
# Scan.sequence: merge of 5 scans
# Column.1: energy eV
# Column.2: requested_energy eV
# Column.3: measurement_time seconds
# Column.4: mutrans
# Column.5: i0
# Column.6: itrans
# Column.7: irefer
# /////
#  Mineral
# -----
# energy   requested_energy   measurement_time   mutrans   i0   itrans   irefer
6339.02 6339 0.500000 2.085022 89.9104 11.1766 2.552910
6379.02 6379 0.500000 2.038701 90.5843 11.7939 2.770025
6419.01 6419 0.500000 1.992971 91.2341 12.4343 3.000674
6459.01 6459 0.500000 1.948577 91.506 13.0375 3.229746
6499 6499 0.500000 1.905153 92.4827 13.7615 3.494524
6514.99 6515 0.500000 1.888596 92.7011 14.0228 3.592308
6523.22 6523 0.500000 1.880831 92.829 14.1554 3.638199
6529.08 6529.1 0.500000 1.875378 92.9698 14.2519 3.664765
6529.48 6529.5 0.500000 1.875117 92.9466 14.2522 3.665019
6529.89 6529.9 0.500000 1.874785 92.9361 14.2553 3.665082
6530.29 6530.3 0.500000 1.874366 92.9326 14.2608 3.665982
6530.69 6530.7 0.500000 1.874158 92.9314 14.2635 3.665992
6531.09 6531.1 0.500000 1.873826 92.9183 14.2662 3.665890
6531.49 6531.5 0.500000 1.873558 92.9168 14.2698 3.665290
6531.9 6531.9 0.500000 1.873239 92.9215 14.2751 3.665270
6532.3 6532.3 0.500000 1.872922 92.9194 14.2793 3.664854
6532.7 6532.7 0.500000 1.872649 92.9142 14.2824 3.663302
6533.1 6533.1 0.500000 1.872567 92.8974 14.281 3.660414
6533.5 6533.5 0.500000 1.872246 92.9052 14.2868 3.658540
6533.89 6533.9 0.500000 1.872044 92.9549 14.2973 3.657627
6534.3 6534.3 0.500000 1.871764 92.9647 14.3028 3.653496
6534.7 6534.7 0.500000 1.871660 92.9538 14.3026 3.647123
6535.1 6535.1 0.500000 1.871553 92.9521 14.3039 3.639168
6535.5 6535.5 0.500000 1.871456 92.9473 14.3045 3.627045
6535.9 6535.9 0.500000 1.871384 93.0078 14.3148 3.612997
6536.3 6536.3 0.500000 1.871548 93.0775 14.3232 3.588716
6536.7 6536.7 0.500000 1.871709 93.0738 14.3203 3.544050
6537.1 6537.1 0.500000 1.872291 93.0687 14.3112 3.465719
6537.5 6537.5 0.500000 1.873511 93.073 14.2944 3.346573
6537.9 6537.9 0.500000 1.875766 93.069 14.2615 3.214484
6538.3 6538.3 0.500000 1.878975 93.0683 14.2162 3.106728
6538.7 6538.7 0.500000 1.881986 93.1366 14.1836 3.028841
6539.1 6539.1 0.500000 1.884163 93.1371 14.1529 2.969580
6539.5 6539.5 0.500000 1.884653 93.1351 14.1455 2.924018
6539.9 6539.9 0.500000 1.884180 93.1302 14.1515 2.888309
6540.3 6540.3 0.500000 1.884186 93.1908 14.1606 2.858889
6540.7 6540.7 0.500000 1.885453 93.1953 14.1433 2.832051
6541.1 6541.1 0.500000 1.886664 93.1949 14.1261 2.816769
6541.49 6541.5 0.500000 1.887065 93.1832 14.1187 2.810630
6541.9 6541.9 0.500000 1.886864 93.1795 14.121 2.806550
6542.3 6542.3 0.500000 1.886492 93.1834 14.1269 2.796506
6542.7 6542.7 0.500000 1.886399 93.174 14.1267 2.777580
6543.1 6543.1 0.500000 1.886752 93.1686 14.1209 2.753436
6543.5 6543.5 0.500000 1.887629 93.1638 14.1078 2.727810
6543.9 6543.9 0.500000 1.889115 93.1557 14.0855 2.701538
6544.3 6544.3 0.500000 1.891596 93.144 14.0487 2.674105
6544.7 6544.7 0.500000 1.895180 93.1392 13.998 2.641888
6545.1 6545.1 0.500000 1.900312 93.1283 13.9252 2.604450
6545.5 6545.5 0.500000 1.907247 93.1182 13.8266 2.559684
6545.9 6545.9 0.500000 1.916735 93.107 13.6953 2.507188
6546.3 6546.3 0.500000 1.929789 93.1079 13.5178 2.444616
6546.7 6546.7 0.500000 1.946999 93.1025 13.2845 2.370977
6547.1 6547.1 0.500000 1.966875 93.1552 13.0297 2.294745
6547.5 6547.5 0.500000 1.988006 93.1358 12.7569 2.217287
6547.9 6547.9 0.500000 2.009423 93.1326 12.4857 2.139579
6548.3 6548.3 0.500000 2.029212 93.1163 12.2392 2.066479
6548.7 6548.7 0.500000 2.045990 93.1478 12.0397 2.004090
6549.1 6549.1 0.500000 2.059891 93.2318 11.8851 1.950686
6549.5 6549.5 0.500000 2.073815 93.2381 11.721 1.897532
6549.91 6549.9 0.500000 2.089700 93.2297 11.5335 1.842456
6550.3 6550.3 0.500000 2.108066 93.2276 11.324 1.786748
6550.7 6550.7 0.500000 2.127993 93.221 11.1005 1.730919
6551.1 6551.1 0.500000 2.149615 93.2247 10.8634 1.675546
6551.5 6551.5 0.500000 2.173340 93.2282 10.6084 1.618354
6551.9 6551.9 0.500000 2.197715 93.28 10.3579 1.563549
6552.3 6552.3 0.500000 2.219488 93.27 10.1375 1.515204
6552.7 6552.7 0.500000 2.236681 93.2756 9.963232 1.475566
6553.1 6553.1 0.500000 2.250372 93.3069 9.830698 1.444666
6553.5 6553.5 0.500000 2.262896 93.3311 9.711117 1.417407
6553.9 6553.9 0.500000 2.275391 93.328 9.589718 1.392143
6554.3 6554.3 0.500000 2.287004 93.3376 9.480427 1.372140
6554.7 6554.7 0.500000 2.296633 93.331 9.388830 1.357121
6555.1 6555.1 0.500000 2.304595 93.333 9.314878 1.347722
6555.5 6555.5 0.500000 2.311577 93.32 9.248818 1.341649
6555.9 6555.9 0.500000 2.318546 93.3192 9.184121 1.337970
6556.3 6556.3 0.500000 2.326266 93.3163 9.113088 1.334815
6556.7 6556.7 0.500000 2.334950 93.3041 9.033902 1.331577
6557.1 6557.1 0.500000 2.343395 93.3049 8.957146 1.328939
6557.5 6557.5 0.500000 2.349860 93.2844 8.897356 1.328307
6557.9 6557.9 0.500000 2.352653 93.2767 8.872173 1.332014
6558.3 6558.3 0.500000 2.351491 93.2753 8.882293 1.339629
6558.7 6558.7 0.500000 2.346858 93.2635 8.922190 1.350941
6559.1 6559.1 0.500000 2.339540 93.2526 8.987050 1.365228
6559.5 6559.5 0.500000 2.330773 93.2464 9.065717 1.380208
6559.9 6559.9 0.500000 2.321580 93.2236 9.147074 1.394577
6560.3 6560.3 0.500000 2.312455 93.1882 9.227445 1.407479
6560.7 6560.7 0.500000 2.304699 93.1094 9.291622 1.417819
6561.1 6561.1 0.500000 2.299344 93.1146 9.341696 1.424816
6561.5 6561.5 0.500000 2.296536 93.2621 9.382703 1.430096
6561.9 6561.9 0.500000 2.296007 93.3594 9.397526 1.431263
6562.3 6562.3 0.500000 2.296627 93.4159 9.397427 1.429851
6562.7 6562.7 0.500000 2.297438 93.4275 9.390916 1.426966
6563.1 6563.1 0.500000 2.297862 93.4299 9.387179 1.424836
6563.5 6563.5 0.500000 2.297419 93.4256 9.390964 1.424567
6563.9 6563.9 0.500000 2.296320 93.4236 9.401015 1.424818
6564.3 6564.3 0.500000 2.294829 93.4237 9.414956 1.425790
6564.69 6564.7 0.500000 2.293350 93.4862 9.435201 1.428393
6565.1 6565.1 0.500000 2.292241 93.4912 9.446408 1.429657
6565.5 6565.5 0.500000 2.291450 93.4811 9.452751 1.430233
6565.9 6565.9 0.500000 2.290922 93.4817 9.457812 1.430845
6566.3 6566.3 0.500000 2.290692 93.5468 9.466607 1.432098
6566.7 6566.7 0.500000 2.290199 93.5445 9.471093 1.433044
6567.1 6567.1 0.500000 2.289506 93.5449 9.477603 1.434423
6567.5 6567.5 0.500000 2.288131 93.5386 9.490075 1.436850
6567.9 6567.9 0.500000 2.286222 93.5311 9.507335 1.440401
6568.3 6568.3 0.500000 2.283760 93.5325 9.531123 1.445081
6568.7 6568.7 0.500000 2.281094 93.5279 9.556018 1.449567
6570.09 6570.08 0.710000 2.271962 132.832 13.6962 2.080804
6574.6 6574.58 0.760000 2.243345 142.254 15.0941 2.291293
6579.4 6579.39 0.810000 2.203298 151.661 16.7491 2.514581
6584.52 6584.51 0.860000 2.169030 161.092 18.4109 2.740774
6589.94 6589.93 0.910000 2.158309 170.487 19.6947 2.985882
6595.66 6595.65 0.960000 2.174779 179.958 20.4494 3.156847
6601.69 6601.68 1.010000 2.185822 189.131 21.2556 3.317845
6608.02 6608.01 1.060000 2.186867 198.971 22.3381 3.474611
6614.66 6614.65 1.110000 2.182995 208.415 23.4891 3.631900
6621.61 6621.6 1.160000 2.178924 218.196 24.6916 3.829480
6628.84 6628.84 1.210000 2.174187 227.471 25.8634 4.050044
6636.41 6636.4 1.260000 2.160648 237.099 27.3257 4.305487
6644.26 6644.26 1.310000 2.147759 246.504 28.7779 4.555903
6652.43 6652.42 1.360000 2.131735 256.184 30.3914 4.866801
6660.9 6660.89 1.410000 2.121810 265.735 31.8389 5.137371
6669.66 6669.66 1.460000 2.113812 275.445 33.2673 5.371846
6678.75 6678.74 1.510000 2.102075 284.996 34.8274 5.636389
6688.13 6688.12 1.560000 2.091220 294.458 36.3762 5.932339
6697.81 6697.8 1.610000 2.084506 303.965 37.8038 6.240445
6707.8 6707.79 1.660000 2.080763 313.359 39.1186 6.529512
6718.09 6718.09 1.710000 2.068539 322.768 40.7885 6.851942
6728.69 6728.69 1.760000 2.056531 332.189 42.486 7.174141
6739.6 6739.6 1.810000 2.042049 341.48 44.3113 7.525666
6750.81 6750.81 1.860000 2.027345 351.004 46.2215 7.922387
6762.31 6762.32 1.910000 2.016417 360.348 47.9733 8.304267
6774.14 6774.14 1.960000 2.003767 369.824 49.8618 8.715800
6786.27 6786.27 2.010000 1.989005 378.908 51.8464 9.157361
6798.7 6798.7 2.060000 1.976699 387.885 53.7318 9.576876
6811.43 6811.43 2.110000 1.962851 372.922 52.3793 9.402946
6824.47 6824.47 2.160000 1.952458 403.583 57.2782 10.3603
6837.82 6837.82 2.210000 1.941058 413.431 59.3485 10.8375
6851.47 6851.47 2.260000 1.926782 421.89 61.4336 11.3352
6865.43 6865.42 2.310000 1.912171 430.214 63.5678 11.8531
6879.68 6879.68 2.360000 1.897596 439.663 65.9177 12.4142
6894.24 6894.24 2.410000 1.882836 449.383 68.3768 12.999
6909.11 6909.11 2.460000 1.867996 458.072 70.7412 13.5719
6924.28 6924.28 2.510000 1.853368 466.705 73.1361 14.1648
6939.76 6939.76 2.560000 1.838618 475.584 75.6351 14.7973
6955.54 6955.54 2.610000 1.824315 483.834 78.0557 15.4285
6971.63 6971.63 2.660000 1.809803 491.917 80.5196 16.0858
6988.02 6988.02 2.710000 1.794655 500.413 83.1607 16.7883
7004.72 7004.72 2.760000 1.779692 508.796 85.8285 17.5036
7021.72 7021.72 2.810000 1.763583 516.569 88.5547 18.2409
7039.03 7039.03 2.860000 1.747570 524.096 91.2955 19.0029
7056.64 7056.64 2.910000 1.731740 531.596 94.0798 19.7887
7074.56 7074.56 2.960000 1.715755 534.991 96.2063 20.4516
7092.78 7092.78 3.010000 1.699300 548.088 100.197 21.5309
7111.31 7111.3 3.060000 1.682644 555.04 103.172 22.3929
7130.14 7130.13 3.110000 1.665803 535.125 101.16 22.1025
7149.27 7149.27 3.160000 1.648754 549.907 105.742 23.3634
7168.71 7168.71 3.210000 1.632649 560.044 109.44 24.4454
7188.45 7188.45 3.260000 1.615737 565.77 112.444 25.3894
7208.5 7208.5 3.310000 1.598541 574.275 116.114 26.508
7228.86 7228.86 3.360000 1.581265 581.568 119.638 27.6178
7249.53 7249.52 3.410000 1.563650 586.696 122.838 28.6722
7270.48 7270.48 3.460000 1.546009 596.076 127.023 29.9739
7281.08 7281.08 3.490000 1.537365 589.776 126.772 30.0796