File: xdidata/Mn/Mn-K-Marokite.xdi
# XDI/1.0 BlueSky/1.5.3
# Beamline.name: 6BM
# Beamline.xray_source: NSLS-II three-pole wiggler
# Beamline.collimation: paraboloid mirror, 5 nm Rh on 30 nm Pt
# Beamline.focusing: not in use
# Beamline.harmonic_rejection: flat mirror, Si stripe, pitch = 7.0 mrad relative to beam
# Detector.i0: 10 cm N2
# Detector.i1: 25 cm N2
# Detector.i2: 25 cm N2
# Element.symbol: Mn
# Element.edge: K
# Facility.name: NSLS-II
# Facility.energy: 3.0
# Facility.current: 400.2
# Facility.mode: top-off
# Facility.gup: 305081
# Facility.saf: 305123
# Mono.name: Si(111)
# Mono.d_spacing: 3.13532
# Mono.encoder_resolution: 0.0000050 deg/ct
# Mono.angle_offset: 16.0581 deg
# Mono.scan_mode: fixed exit
# Mono.scan_type: step
# Mono.direction: forward in energy
# Sample.name: CaMn2O4
# Sample.prep: Powder in polyethylene glycol pellet
# Sample.x_position: -120.140 mm
# Sample.y_position: 112.312 mm
# Scan.experimenters: Neil Hyatt, Martin Stennett, Lucy Mottram
# Scan.edge_energy: 6539.0
# Scan.start_time: 2019-11-11T18:34:38
# Scan.end_time: 2019-11-12T05:53:09
# Scan.transient_id: 17909
# Scan.uid: 981eabd5-0629-4f51-b013-e7402f0ca6d9
# Scan.plot_hint: ln(I0/It)  --  ln($5/$6)
# Scan.sequence: merge of 3 scans
# Column.1: energy eV
# Column.2: requested_energy eV
# Column.3: measurement_time seconds
# Column.4: mutrans
# Column.5: i0
# Column.6: itrans
# Column.7: irefer
# /////
#  Tachgagalt nr. Ourzazate, Morocco
# -----
# energy   requested_energy   measurement_time   mutrans   i0   itrans   irefer
6339 6339 0.500000 2.442026 89.6198 7.795606 1.791999
6379.02 6379 0.500000 2.388560 90.3808 8.293560 1.959802
6419.01 6419 0.500000 2.336793 91.092 8.802903 2.137332
6459.01 6459 0.500000 2.286046 91.2838 9.280673 2.312361
6499 6499 0.500000 2.237282 92.1401 9.835775 2.511653
6514.99 6515 0.500000 2.219158 92.3527 10.0387 2.586296
6523.03 6523 0.500000 2.210852 92.5028 10.1392 2.620868
6529.09 6529.1 0.500000 2.205595 92.5741 10.2003 2.637906
6529.49 6529.5 0.500000 2.205406 92.5243 10.1967 2.637041
6529.88 6529.9 0.500000 2.205044 92.5343 10.2015 2.637852
6530.29 6530.3 0.500000 2.204811 92.6191 10.2131 2.639931
6530.69 6530.7 0.500000 2.204619 92.6073 10.2138 2.639932
6531.09 6531.1 0.500000 2.204370 92.6149 10.2172 2.640523
6531.5 6531.5 0.500000 2.204164 92.6253 10.2204 2.639649
6531.89 6531.9 0.500000 2.203944 92.6045 10.2203 2.638776
6532.31 6532.3 0.500000 2.203752 92.6049 10.2223 2.638556
6532.7 6532.7 0.500000 2.203600 92.5959 10.223 2.636756
6533.11 6533.1 0.500000 2.203624 92.6063 10.2238 2.635564
6533.5 6533.5 0.500000 2.203485 92.5886 10.2233 2.632748
6533.9 6533.9 0.500000 2.203446 92.5759 10.2223 2.629924
6534.3 6534.3 0.500000 2.203436 92.5846 10.2234 2.626656
6534.7 6534.7 0.500000 2.203444 92.5671 10.2214 2.621426
6535.1 6535.1 0.500000 2.203583 92.5653 10.2197 2.614813
6535.5 6535.5 0.500000 2.203807 92.5767 10.2187 2.605525
6535.9 6535.9 0.500000 2.203951 92.5548 10.2148 2.592462
6536.3 6536.3 0.500000 2.204512 92.6553 10.2203 2.575159
6536.7 6536.7 0.500000 2.205196 92.6611 10.2138 2.541794
6537.1 6537.1 0.500000 2.206293 92.6659 10.2032 2.484121
6537.49 6537.5 0.500000 2.208168 92.6635 10.1839 2.398162
6537.9 6537.9 0.500000 2.211844 92.7676 10.1579 2.302490
6538.3 6538.3 0.500000 2.218035 92.7594 10.0942 2.218912
6538.7 6538.7 0.500000 2.226966 92.7508 10.0035 2.149489
6539.1 6539.1 0.500000 2.234036 92.7593 9.934311 2.097110
6539.5 6539.5 0.500000 2.234715 92.7528 9.926694 2.064192
6539.9 6539.9 0.500000 2.230843 92.7556 9.965508 2.046332
6540.3 6540.3 0.500000 2.228430 92.7584 9.989813 2.029612
6540.7 6540.7 0.500000 2.230952 92.7441 9.962942 2.007640
6541.1 6541.1 0.500000 2.237714 92.7486 9.896392 1.985639
6541.5 6541.5 0.500000 2.244587 92.7348 9.827308 1.968395
6541.9 6541.9 0.500000 2.249766 92.7393 9.777118 1.955561
6542.3 6542.3 0.500000 2.254127 92.735 9.733841 1.938904
6542.7 6542.7 0.500000 2.258425 92.7306 9.691631 1.917798
6543.1 6543.1 0.500000 2.261923 92.8401 9.669147 1.897313
6543.5 6543.5 0.500000 2.265435 92.8279 9.633880 1.875169
6543.9 6543.9 0.500000 2.271205 92.8354 9.579381 1.849913
6544.3 6544.3 0.500000 2.281538 92.8068 9.477945 1.815689
6544.69 6544.7 0.500000 2.298535 92.8062 9.319380 1.770586
6545.1 6545.1 0.500000 2.323217 92.7865 9.088586 1.711105
6545.5 6545.5 0.500000 2.357536 92.7786 8.780486 1.636739
6545.9 6545.9 0.500000 2.402419 92.7884 8.397819 1.547785
6546.3 6546.3 0.500000 2.456415 92.7818 7.954828 1.448547
6546.7 6546.7 0.500000 2.509977 92.7856 7.540924 1.355238
6547.1 6547.1 0.500000 2.545866 92.7687 7.272542 1.289379
6547.5 6547.5 0.500000 2.559683 92.7604 7.172954 1.254960
6547.9 6547.9 0.500000 2.563521 92.7551 7.145202 1.232203
6548.3 6548.3 0.500000 2.570041 92.7145 7.095186 1.206453
6548.7 6548.7 0.500000 2.583654 92.7281 7.000471 1.172872
6549.1 6549.1 0.500000 2.602417 92.7806 6.875174 1.136126
6549.5 6549.5 0.500000 2.626049 92.8423 6.717947 1.095359
6549.9 6549.9 0.500000 2.652574 92.8117 6.540803 1.052589
6550.3 6550.3 0.500000 2.677410 92.8377 6.382228 1.014121
6550.7 6550.7 0.500000 2.695689 92.9386 6.273273 0.985176
6551.1 6551.1 0.500000 2.706238 92.9126 6.205297 0.964124
6551.5 6551.5 0.500000 2.711381 92.9234 6.174374 0.948787
6551.9 6551.9 0.500000 2.716519 92.9152 6.142248 0.933763
6552.3 6552.3 0.500000 2.725938 92.9221 6.084642 0.916099
6552.7 6552.7 0.500000 2.741415 92.9137 5.990653 0.893904
6553.1 6553.1 0.500000 2.761994 92.8904 5.867984 0.868628
6553.5 6553.5 0.500000 2.786180 92.8905 5.727511 0.842298
6553.9 6553.9 0.500000 2.811498 92.8817 5.583681 0.816957
6554.3 6554.3 0.500000 2.835093 92.8802 5.453274 0.795399
6554.69 6554.7 0.500000 2.856045 92.9045 5.341973 0.778071
6555.1 6555.1 0.500000 2.875055 92.8864 5.239993 0.763901
6555.5 6555.5 0.500000 2.891895 92.8928 5.152014 0.752930
6555.9 6555.9 0.500000 2.907077 92.8746 5.074404 0.744669
6556.3 6556.3 0.500000 2.920543 92.9822 5.012291 0.739505
6556.7 6556.7 0.500000 2.932638 92.9627 4.950527 0.735118
6557.11 6557.1 0.500000 2.941971 92.9675 4.904848 0.733085
6557.5 6557.5 0.500000 2.947096 92.9605 4.879549 0.734129
6557.9 6557.9 0.500000 2.948511 92.9601 4.872697 0.736923
6558.3 6558.3 0.500000 2.947489 92.9437 4.876916 0.740953
6558.7 6558.7 0.500000 2.944302 92.9402 4.892204 0.746714
6559.1 6559.1 0.500000 2.938721 92.9469 4.919671 0.752911
6559.5 6559.5 0.500000 2.931064 92.918 4.956092 0.759798
6559.9 6559.9 0.500000 2.921835 92.8962 5.001061 0.767831
6560.3 6560.3 0.500000 2.910207 92.8363 5.055995 0.776976
6560.7 6560.7 0.500000 2.895880 92.7336 5.123698 0.787463
6561.1 6561.1 0.500000 2.879291 92.7222 5.208858 0.800300
6561.5 6561.5 0.500000 2.862065 92.8707 5.307750 0.814584
6561.9 6561.9 0.500000 2.845911 92.9212 5.397050 0.827909
6562.3 6562.3 0.500000 2.831283 93.0216 5.482531 0.839928
6562.7 6562.7 0.500000 2.819154 93.0216 5.549584 0.849559
6563.1 6563.1 0.500000 2.810229 93.02 5.598851 0.856155
6563.5 6563.5 0.500000 2.804638 93.0285 5.630767 0.859882
6563.9 6563.9 0.500000 2.801788 93.1136 5.652078 0.862567
6564.3 6564.3 0.500000 2.801029 93.1071 5.656012 0.862892
6564.7 6564.7 0.500000 2.802372 93.136 5.650228 0.861548
6565.1 6565.1 0.500000 2.804762 93.1124 5.635064 0.858760
6565.5 6565.5 0.500000 2.808140 93.1125 5.616098 0.855895
6565.9 6565.9 0.500000 2.812503 93.0743 5.589520 0.851541
6566.3 6566.3 0.500000 2.817043 93.1 5.565655 0.847533
6566.7 6566.7 0.500000 2.821669 93.081 5.538796 0.844232
6567.1 6567.1 0.500000 2.825995 93.1106 5.516697 0.841212
6567.5 6567.5 0.500000 2.830003 93.0968 5.494053 0.837830
6567.9 6567.9 0.500000 2.834156 93.0966 5.471011 0.834926
6568.3 6568.3 0.500000 2.838599 93.0938 5.446551 0.831103
6568.7 6568.7 0.500000 2.843270 93.0932 5.421117 0.828350
6570.09 6570.08 0.710000 2.856880 132.302 7.600715 1.163396
6574.58 6574.58 0.760000 2.822865 141.749 8.423946 1.287940
6579.39 6579.39 0.810000 2.760872 151.133 9.556529 1.445066
6584.51 6584.51 0.860000 2.703805 160.522 10.7466 1.610703
6589.94 6589.93 0.910000 2.696615 169.902 11.457 1.749571
6595.66 6595.65 0.960000 2.723656 179.332 11.7703 1.829701
6601.69 6601.68 1.010000 2.734144 188.381 12.2352 1.922778
6608.02 6608.01 1.060000 2.720385 198.209 13.0518 2.044469
6614.66 6614.65 1.110000 2.718205 207.678 13.7053 2.134353
6621.61 6621.6 1.160000 2.716613 217.318 14.3642 2.242839
6628.84 6628.84 1.210000 2.728831 226.612 14.7968 2.333544
6636.41 6636.4 1.260000 2.723956 236.265 15.5025 2.459197
6644.27 6644.26 1.310000 2.700054 245.975 16.5299 2.635277
6652.42 6652.42 1.360000 2.669873 255.475 17.6943 2.852496
6660.9 6660.89 1.410000 2.650732 264.972 18.7069 3.039406
6669.67 6669.66 1.460000 2.635764 274.552 19.6756 3.199836
6678.75 6678.74 1.510000 2.632545 284.373 20.445 3.331135
6688.12 6688.12 1.560000 2.628123 293.862 21.2207 3.484197
6697.8 6697.8 1.610000 2.616724 303.384 22.1596 3.683273
6707.79 6707.79 1.660000 2.605069 312.782 23.1138 3.884414
6718.08 6718.09 1.710000 2.600859 322.198 23.91 4.043468
6728.69 6728.69 1.760000 2.585657 331.556 24.9816 4.246551
6739.6 6739.6 1.810000 2.565354 340.861 26.2093 4.482162
6750.81 6750.81 1.860000 2.549965 349.996 27.329 4.715394
6762.32 6762.32 1.910000 2.530079 358.904 28.5873 4.983239
6774.14 6774.14 1.960000 2.512811 368.022 29.8241 5.248842
6786.27 6786.27 2.010000 2.502234 377.041 30.8801 5.491965
6798.7 6798.7 2.060000 2.487867 386.354 32.1008 5.759352
6811.43 6811.43 2.110000 2.472860 370.857 31.279 5.652094
6824.47 6824.47 2.160000 2.461150 401.345 34.2492 6.236247
6837.83 6837.82 2.210000 2.444634 411.481 35.6986 6.562283
6851.47 6851.47 2.260000 2.427657 419.968 37.0585 6.883092
6865.43 6865.42 2.310000 2.412237 428.098 38.3629 7.199912
6879.68 6879.68 2.360000 2.394791 437.349 39.8816 7.560419
6894.24 6894.24 2.410000 2.376959 446.962 41.4915 7.938820
6909.11 6909.11 2.460000 2.358592 455.42 43.0604 8.314121
6924.28 6924.28 2.510000 2.340875 463.41 44.5991 8.693169
6939.76 6939.76 2.560000 2.325319 471.902 46.1285 9.082158
6955.55 6955.54 2.610000 2.309735 480.759 47.7326 9.494717
6971.63 6971.63 2.660000 2.292811 489.589 49.4391 9.938619
6988.03 6988.02 2.710000 2.274362 497.577 51.1816 10.396
7004.73 7004.72 2.760000 2.256293 505.583 52.9532 10.8639
7021.73 7021.72 2.810000 2.237590 513.943 54.8447 11.3659
7039.03 7039.03 2.860000 2.219621 521.384 56.6472 11.8613
7056.65 7056.64 2.910000 2.202009 528.659 58.4582 12.3687
7074.57 7074.56 2.960000 2.183605 531.805 59.8984 12.808
7092.78 7092.78 3.010000 2.164670 543.763 62.4156 13.4893
7111.31 7111.3 3.060000 2.146011 549.804 64.2976 14.0358
7130.13 7130.13 3.110000 2.127801 530.644 63.1973 13.8855
7149.28 7149.27 3.160000 2.109597 545.295 66.1358 14.6952
7168.72 7168.71 3.210000 2.090445 554.312 68.5289 15.3923
7188.45 7188.45 3.260000 2.071083 559.838 70.5649 16.0199
7208.5 7208.5 3.310000 2.051515 568.12 73.0236 16.7599
7228.86 7228.86 3.360000 2.031914 575.5 75.4365 17.5064
7249.52 7249.52 3.410000 2.012085 580.325 77.592 18.2044
7270.49 7270.48 3.460000 1.992859 588.932 80.2716 19.0376
7281.08 7281.08 3.490000 1.983291 582.713 80.1874 19.1225