File: xdidata/Mn/Mn-K-ManganeseMetal.xdi
# XDI/1.0 BlueSky/1.10.0 BMM/2023-1.0-py310-tiled
# Beamline.name: BMM (06BM) -- Beamline for Materials Measurement (NIST)
# Beamline.xray_source: NSLS-II three-pole wiggler
# Beamline.collimation: paraboloid mirror, 5 nm Rh on 30 nm Pt
# Beamline.focusing: not in use
# Beamline.harmonic_rejection: flat mirror, Si stripe, pitch = 7.0 mrad relative to beam
# Beamline.software: Bluesky 1.10.0, Ophyd 1.7.0, DataBroker 2.0.0b13, Python 3.10.8, 2023-1.0-py310-tiled
# Detector.I0: 10 cm N2
# Detector.I1: 25 cm N2
# Detector.I2: 25 cm N2
# Element.symbol: Mn
# Element.edge: K
# Element.reference: Mn
# Element.reference_material: Mn metal powder
# Facility.name: NSLS-II
# Facility.energy: 3.0
# Facility.current: 400.0
# Facility.mode: top-off
# Facility.GUP: 301027
# Facility.SAF: 310583
# Facility.cycle: 2023-2
# Mono.name: Si(111)
# Mono.d_spacing: 3.13519
# Mono.encoder_resolution: 0.0000050 deg/ct
# Mono.angle_offset: 16.0754 deg
# Mono.scan_mode: pseudo channel cut
# Mono.scan_type: step
# Mono.direction: forward in energy
# Sample.name: Mn metal powder
# Sample.prep: reference
# Sample.x: 109.138 mm
# Sample.y: 153.150 mm
# Sample.SDD_position: 205.000 mm
# Scan.experimenters: Bruce Ravel
# Scan.edge_energy: 6539.0
# Scan.start_time: 2023-05-28T12:25:43
# Scan.end_time: 2023-05-28T12:33:53
# Scan.transient_id: 78679
# Scan.uid: fa86093f-2d6d-47ba-b93d-a09b620c6404
# Scan.plot_hint: ln(It/Ir)  --  ln($6/$7)
# Column.1: energy eV
# Column.2: requested_energy eV
# Column.3: measurement_time seconds
# Column.4: xmu
# Column.5: I0 nA
# Column.6: It nA
# Column.7: Ir nA
# ///////////
# standard reference
# -----------
# energy  requested_energy  measurement_time  xmu  I0  It  Ir
  6339.005  6339.000  0.500  3.394678  153.702  113.96  3.823518
  6369.002  6369.000  0.500  3.349364  154.489  116.112  4.076288
  6399.021  6399.000  0.500  3.304933  155.09  118.11  4.334819
  6429.012  6429.000  0.500  3.261895  155.577  120.097  4.601602
  6459.010  6459.000  0.500  3.220559  154.802  121.078  4.834967
  6488.981  6489.000  0.500  3.182479  155.572  123.198  5.110565
  6510.986  6511.000  0.500  3.164348  155.863  124.588  5.262802
  6516.990  6517.000  0.500  3.164243  155.943  124.957  5.278966
  6522.990  6523.000  0.500  3.170048  156.017  125.297  5.262671
  6528.996  6529.000  0.500  3.192079  156.084  125.741  5.166224
  6529.886  6529.900  0.500  3.198638  156.086  125.697  5.130659
  6530.784  6530.800  0.500  3.206427  156.09  125.706  5.091227
  6531.683  6531.700  0.500  3.216633  156.098  125.843  5.045006
  6532.588  6532.600  0.500  3.229741  156.118  125.934  4.982906
  6533.491  6533.500  0.500  3.247860  156.599  126.332  4.908929
  6534.396  6534.400  0.500  3.272510  156.621  126.402  4.792057
  6535.292  6535.300  0.500  3.310723  156.62  126.446  4.614002
  6536.189  6536.200  0.500  3.374901  156.594  126.47  4.327984
  6537.095  6537.100  0.500  3.518031  156.624  126.533  3.752676
  6537.996  6538.000  0.500  3.927015  156.63  126.573  2.493796
  6538.897  6538.900  0.500  4.728332  156.621  126.606  1.119354
  6539.796  6539.800  0.500  5.235377  156.596  126.706  0.674688
  6540.698  6540.700  0.500  5.552813  156.609  126.74  0.491314
  6541.596  6541.600  0.500  5.747095  156.615  126.802  0.404757
  6542.498  6542.500  0.500  5.778703  156.606  126.81  0.392189
  6543.399  6543.400  0.500  5.864163  156.621  126.804  0.360046
  6544.299  6544.300  0.500  6.030112  156.6  126.907  0.305239
  6545.195  6545.200  0.500  6.142056  156.595  126.99  0.273092
  6546.100  6546.100  0.500  6.243143  156.579  127.001  0.246856
  6547.001  6547.000  0.500  6.411098  156.592  127.035  0.208747
  6547.898  6547.900  0.500  6.632615  156.599  127.103  0.167359
  6548.798  6548.800  0.500  6.870224  156.598  127.092  0.131953
  6549.704  6549.700  0.500  7.118710  156.581  127.164  0.102979
  6550.600  6550.600  0.500  7.356833  156.569  127.17  0.081162
  6551.495  6551.500  0.500  7.578589  156.517  127.181  0.065026
  6552.402  6552.400  0.500  7.781635  156.533  127.27  0.053113
  6553.303  6553.300  0.500  7.978934  156.52  127.313  0.043618
  6554.196  6554.200  0.500  8.141457  156.523  127.381  0.037095
  6555.102  6555.100  0.500  8.240824  156.531  127.441  0.033602
  6556.001  6556.000  0.500  8.267801  156.533  127.476  0.032717
  6556.902  6556.900  0.500  8.218781  156.519  127.492  0.034365
  6557.803  6557.800  0.500  8.120382  156.504  127.473  0.037912
  6558.708  6558.700  0.500  8.015158  156.501  127.535  0.042139
  6559.593  6559.600  0.500  7.941333  156.492  127.57  0.045381
  6560.502  6560.500  0.500  7.894940  156.525  127.634  0.047559
  6561.402  6561.400  0.500  7.889278  156.456  127.605  0.047819
  6562.301  6562.300  0.500  7.898537  156.178  127.461  0.047325
  6563.198  6563.200  0.500  7.920241  156.465  127.759  0.046417
  6564.005  6564.000  0.500  7.933941  156.505  127.801  0.045800
  6567.026  6567.010  0.500  7.976775  156.51  128.015  0.043953
  6570.200  6570.200  0.500  7.972115  156.554  128.182  0.044216
  6573.563  6573.560  0.500  7.968809  156.563  128.348  0.044420
  6577.084  6577.080  0.500  8.016077  156.593  128.543  0.042434
  6580.784  6580.780  0.500  8.081372  156.613  128.8  0.039831
  6584.653  6584.650  0.500  8.163911  156.656  129.016  0.036737
  6588.704  6588.700  0.500  8.110710  156.626  129.217  0.038805
  6592.916  6592.910  0.500  7.994596  156.696  129.478  0.043670
  6597.295  6597.290  0.500  7.885353  156.687  129.721  0.048803
  6601.858  6601.850  0.500  7.821931  156.711  129.936  0.052085
  6606.587  6606.580  0.500  7.860930  156.713  130.185  0.050188
  6611.483  6611.480  0.500  7.939212  156.742  130.521  0.046529
  6616.563  6616.550  0.500  7.998559  156.771  130.739  0.043921
  6621.800  6621.790  0.500  7.993114  156.738  130.982  0.044243
  6627.220  6627.210  0.500  7.938367  156.768  131.256  0.046831
  6632.795  6632.790  0.500  7.889278  156.78  131.541  0.049294
  6638.553  6638.550  0.500  7.921022  156.808  131.867  0.047872
  6644.493  6644.480  0.500  7.930914  157.228  132.503  0.047629
  6650.586  6650.580  0.500  7.864108  157.319  132.919  0.051080
  6656.854  6656.850  0.500  7.800397  157.348  133.262  0.054580
  6663.300  6663.290  0.500  7.771196  157.331  133.593  0.056337
  6669.914  6669.900  0.500  7.806098  157.326  133.978  0.054562
  6676.700  6676.690  0.500  7.845937  157.282  134.269  0.052545
  6683.659  6683.650  0.500  7.853191  157.312  134.609  0.052297
  6690.780  6690.770  0.500  7.828606  157.306  134.971  0.053743
  6698.083  6698.070  0.500  7.771313  157.303  135.322  0.057060
  6705.563  6705.550  0.500  7.709772  157.242  135.641  0.060825
  6713.206  6713.190  0.500  7.678911  157.254  136.052  0.062921
  6721.009  6721.000  0.500  7.679066  157.208  136.374  0.063060
  6729.004  6728.990  0.500  7.677283  157.197  136.747  0.063346
  6737.173  6737.150  0.500  7.679680  157.135  137.116  0.063364
  6745.491  6745.470  0.500  7.665394  157.075  137.515  0.064463
  6753.984  6753.970  0.500  7.622389  156.988  137.83  0.067450
  6762.664  6762.650  0.500  7.608780  156.953  138.233  0.068574
  6771.501  6771.490  0.500  7.595264  156.884  138.55  0.069666
  6780.529  6780.500  0.500  7.556252  156.837  138.992  0.072670
  6789.715  6789.690  0.500  7.505023  156.735  139.344  0.076683
  6799.044  6799.050  0.500  7.478907  156.464  139.591  0.078851
  6808.584  6808.570  0.500  7.468777  156.63  140.206  0.080005
  6818.285  6818.270  0.500  7.465467  156.194  140.306  0.080328
  6828.163  6828.150  0.500  7.453051  155.64  140.235  0.081290
  6838.203  6838.190  0.500  7.427559  155.365  140.494  0.083543
  6848.413  6848.400  0.500  7.404557  155.29  140.913  0.085742
  6858.800  6858.790  0.500  7.370027  155.155  141.275  0.088982
  6869.364  6869.350  0.500  7.338019  155.089  141.711  0.092160
  6880.096  6880.080  0.500  7.308700  155.026  142.142  0.095190
  6890.973  6890.980  0.500  7.285277  154.888  142.532  0.097714
  6902.068  6902.050  0.500  7.262767  154.719  142.88  0.100183
  6913.272  6913.290  0.500  7.247702  154.4  143.145  0.101892
  6924.716  6924.710  0.500  7.223276  154.089  143.395  0.104594
  6936.303  6936.290  0.500  7.200602  153.836  143.708  0.107226
  6948.037  6948.050  0.500  7.180575  153.571  144.019  0.109632
  6959.978  6959.980  0.500  7.151328  153.337  144.288  0.113096
  6972.065  6972.080  0.500  7.122922  153.097  144.666  0.116660
  6984.335  6984.350  0.500  7.090242  152.803  144.944  0.120767
  6996.763  6996.790  0.500  7.067847  152.5  145.199  0.123719
  7009.394  7009.410  0.500  7.046957  152.176  145.494  0.126588
  7022.177  7022.190  0.500  7.023614  151.859  145.718  0.129776
  7035.134  7035.150  0.500  6.997177  151.489  145.966  0.133480
  7048.253  7048.280  0.500  6.972069  151.128  146.197  0.137091
  7061.560  7061.580  0.500  6.946473  150.793  146.447  0.140885
  7075.032  7075.050  0.500  6.921070  149.996  146.251  0.144317
  7088.697  7088.700  0.500  6.892157  149.848  146.64  0.148946
  7102.487  7102.510  0.500  6.866896  149.465  146.893  0.153020
  7116.483  7116.500  0.500  6.845901  148.725  146.809  0.156176
  7130.640  7130.660  0.500  6.829263  147.699  146.436  0.158393
  7144.974  7144.990  0.500  6.801485  147.216  146.453  0.162873
  7159.471  7159.490  0.500  6.776971  146.79  146.678  0.167173
  7174.146  7174.160  0.500  6.748490  146.096  146.566  0.171871
  7188.976  7189.000  0.500  6.721025  145.941  147.01  0.177191
  7203.995  7204.020  0.500  6.693933  145.244  146.951  0.181985
  7219.179  7219.200  0.500  6.667212  144.473  146.828  0.186756
  7234.536  7234.560  0.500  6.637203  143.894  146.828  0.192446
  7250.067  7250.090  0.500  6.611370  143.088  146.574  0.197141
  7265.768  7265.790  0.500  6.585124  136.535  140.438  0.193911
  7281.641  7281.660  0.500  6.558202  142.358  147.056  0.208590
  7297.693  7297.710  0.500  6.530452  141.526  146.864  0.214179
  7313.896  7313.920  0.500  6.502965  140.979  146.95  0.220276
  7330.295  7330.310  0.500  6.475951  140.266  146.77  0.226030
  7346.860  7346.870  0.500  6.447644  139.594  146.719  0.232439
  7363.622  7363.600  0.500  6.420790  138.916  146.641  0.238640
  7380.472  7380.500  0.500  6.393132  138.208  146.502  0.245098
  7391.879  7391.860  0.500  6.373819  137.744  146.394  0.249695