File: xdidata/Mn/Mn-K-Pumpellyite.xdi
# XDI/1.0 BlueSky/1.5.3
# Beamline.name: 6BM
# Beamline.xray_source: NSLS-II three-pole wiggler
# Beamline.collimation: paraboloid mirror, 5 nm Rh on 30 nm Pt
# Beamline.focusing: not in use
# Beamline.harmonic_rejection: flat mirror, Si stripe, pitch = 7.0 mrad relative to beam
# Detector.i0: 10 cm N2
# Detector.i1: 25 cm N2
# Detector.i2: 25 cm N2
# Element.symbol: Mn
# Element.edge: K
# Facility.name: NSLS-II
# Facility.energy: 3.0
# Facility.current: 400.5
# Facility.mode: top-off
# Facility.gup: 305081
# Facility.saf: 305123
# Mono.name: Si(111)
# Mono.d_spacing: 3.13532
# Mono.encoder_resolution: 0.0000050 deg/ct
# Mono.angle_offset: 16.0581 deg
# Mono.scan_mode: fixed exit
# Mono.scan_type: step
# Mono.direction: forward in energy
# Sample.name: Ca2(Mn2+,Mg)(Al,Mn3+,Fe)2(SiO4)(Si2O7)(OH)2.H2O]
# Sample.prep: Powder in polyethylene glycol pellet
# Sample.x_position: -120.140 mm
# Sample.y_position: 112.312 mm
# Scan.experimenters: Neil Hyatt, Martin Stennett, Lucy Mottram
# Scan.edge_energy: 6539.0
# Scan.start_time: 2019-11-11T15:38:23
# Scan.end_time: 2019-11-12T01:22:51
# Scan.transient_id: 17900
# Scan.uid: c5bfe02d-1571-4879-817d-13eefa1d3ad7
# Scan.plot_hint: ln(I0/It)  --  ln($5/$6)
# Scan.sequence: merge of 5 scans
# Column.1: energy eV
# Column.2: requested_energy eV
# Column.3: measurement_time seconds
# Column.4: mutrans
# Column.5: i0
# Column.6: itrans
# Column.7: irefer
# /////
#  Mineral
# -----
# energy   requested_energy   measurement_time   mutrans   i0   itrans   irefer
6339 6339 0.500000 2.566321 89.8325 6.900765 1.579230
6379.02 6379 0.500000 2.510833 90.5054 7.349101 1.729494
6419.01 6419 0.500000 2.456440 91.1403 7.814276 1.888572
6459.01 6459 0.500000 2.403608 91.3933 8.261083 2.050039
6499 6499 0.500000 2.352000 92.3778 8.792329 2.236443
6514.98 6515 0.500000 2.332257 92.6905 8.997974 2.309127
6522.98 6523 0.500000 2.322985 92.8233 9.094803 2.341450
6529.09 6529.1 0.500000 2.316318 92.9164 9.164810 2.361254
6529.49 6529.5 0.500000 2.315869 92.9224 9.169586 2.362039
6529.89 6529.9 0.500000 2.315420 92.935 9.174961 2.362505
6530.29 6530.3 0.500000 2.315116 92.9304 9.177268 2.363344
6530.69 6530.7 0.500000 2.314709 92.9283 9.180797 2.363550
6531.09 6531.1 0.500000 2.314355 92.9356 9.184711 2.363469
6531.5 6531.5 0.500000 2.313885 93.0052 9.195958 2.366232
6531.89 6531.9 0.500000 2.313489 93.0367 9.202630 2.366792
6532.29 6532.3 0.500000 2.313120 93.0725 9.209511 2.366716
6532.7 6532.7 0.500000 2.312773 93.0738 9.212915 2.366300
6533.1 6533.1 0.500000 2.312643 93.1083 9.217527 2.366261
6533.5 6533.5 0.500000 2.312166 93.1272 9.223803 2.365541
6533.89 6533.9 0.500000 2.311887 93.1369 9.227293 2.364547
6534.3 6534.3 0.500000 2.311588 93.1317 9.229561 2.361381
6534.7 6534.7 0.500000 2.311388 93.1416 9.232405 2.358059
6535.1 6535.1 0.500000 2.311173 93.1332 9.233513 2.353280
6535.5 6535.5 0.500000 2.311087 93.1259 9.233616 2.345073
6535.9 6535.9 0.500000 2.310961 93.1111 9.233308 2.334185
6536.3 6536.3 0.500000 2.311021 93.1108 9.232739 2.316616
6536.7 6536.7 0.500000 2.311246 93.0911 9.228707 2.288200
6537.1 6537.1 0.500000 2.311868 93.0824 9.222076 2.236685
6537.5 6537.5 0.500000 2.313324 93.0921 9.209667 2.159622
6537.9 6537.9 0.500000 2.316235 93.0823 9.181939 2.073947
6538.3 6538.3 0.500000 2.319919 93.0759 9.147539 2.002764
6538.7 6538.7 0.500000 2.322693 93.1187 9.126333 1.952831
6539.1 6539.1 0.500000 2.323237 93.1169 9.121277 1.917689
6539.5 6539.5 0.500000 2.321721 93.1891 9.142147 1.893899
6539.9 6539.9 0.500000 2.319987 93.1881 9.157930 1.873673
6540.3 6540.3 0.500000 2.319216 93.1882 9.165076 1.854207
6540.7 6540.7 0.500000 2.319063 93.1827 9.165943 1.840331
6541.1 6541.1 0.500000 2.318843 93.2002 9.169665 1.832859
6541.5 6541.5 0.500000 2.318164 93.2006 9.175970 1.830966
6541.9 6541.9 0.500000 2.317525 93.1981 9.181570 1.829271
6542.3 6542.3 0.500000 2.317569 93.1967 9.181039 1.822152
6542.7 6542.7 0.500000 2.318387 93.1982 9.173644 1.808098
6543.1 6543.1 0.500000 2.319837 93.1976 9.160252 1.790579
6543.5 6543.5 0.500000 2.321862 93.1991 9.141872 1.772231
6543.9 6543.9 0.500000 2.324556 93.1898 9.116620 1.753631
6544.3 6544.3 0.500000 2.328522 93.1772 9.079224 1.732378
6544.7 6544.7 0.500000 2.334252 93.2437 9.033364 1.709886
6545.09 6545.1 0.500000 2.342375 93.3107 8.967962 1.681744
6545.5 6545.5 0.500000 2.353170 93.3019 8.870212 1.646354
6545.9 6545.9 0.500000 2.367222 93.2858 8.744197 1.605162
6546.3 6546.3 0.500000 2.385490 93.356 8.593364 1.558288
6546.7 6546.7 0.500000 2.408494 93.3534 8.397009 1.503166
6547.1 6547.1 0.500000 2.434694 93.3391 8.179273 1.445435
6547.5 6547.5 0.500000 2.462661 93.3264 7.950749 1.386127
6547.9 6547.9 0.500000 2.490825 93.3119 7.729404 1.329028
6548.3 6548.3 0.500000 2.517230 93.3069 7.530086 1.276029
6548.7 6548.7 0.500000 2.540093 93.2924 7.357525 1.228959
6549.1 6549.1 0.500000 2.558503 93.2848 7.221347 1.189129
6549.5 6549.5 0.500000 2.575919 93.2798 7.097225 1.152850
6549.9 6549.9 0.500000 2.595493 93.2688 6.959152 1.115903
6550.31 6550.3 0.500000 2.618168 93.2562 6.800226 1.076749
6550.7 6550.7 0.500000 2.642050 93.2511 6.639497 1.039304
6551.1 6551.1 0.500000 2.667283 93.2322 6.473972 1.001982
6551.5 6551.5 0.500000 2.695318 93.2356 6.296064 0.964393
6551.9 6551.9 0.500000 2.725570 93.2658 6.108348 0.925790
6552.3 6552.3 0.500000 2.755748 93.3272 5.931826 0.890104
6552.7 6552.7 0.500000 2.781622 93.3092 5.780356 0.859958
6553.1 6553.1 0.500000 2.802869 93.2974 5.657549 0.834979
6553.5 6553.5 0.500000 2.820570 93.2945 5.557449 0.814364
6553.9 6553.9 0.500000 2.836045 93.2892 5.472382 0.797937
6554.3 6554.3 0.500000 2.849596 93.2842 5.398203 0.784883
6554.69 6554.7 0.500000 2.860836 93.2737 5.337484 0.774847
6555.1 6555.1 0.500000 2.871167 93.2744 5.282364 0.767751
6555.5 6555.5 0.500000 2.881303 93.2725 5.229163 0.761748
6555.9 6555.9 0.500000 2.892253 93.2653 5.171804 0.756893
6556.3 6556.3 0.500000 2.903780 93.2562 5.111767 0.752091
6556.7 6556.7 0.500000 2.915187 93.2496 5.053276 0.748008
6557.1 6557.1 0.500000 2.924916 93.2443 5.004370 0.746020
6557.5 6557.5 0.500000 2.930702 93.2453 4.975622 0.745911
6557.9 6557.9 0.500000 2.930593 93.305 4.979353 0.750577
6558.3 6558.3 0.500000 2.924286 93.3153 5.011441 0.759336
6558.7 6558.7 0.500000 2.912053 93.3395 5.074123 0.771774
6559.1 6559.1 0.500000 2.894679 93.4038 5.166331 0.788053
6559.5 6559.5 0.500000 2.874642 93.4017 5.271967 0.806121
6559.9 6559.9 0.500000 2.854553 93.3659 5.376574 0.822895
6560.3 6560.3 0.500000 2.836194 93.2811 5.470826 0.837877
6560.7 6560.7 0.500000 2.821912 93.1938 5.544335 0.849277
6561.1 6561.1 0.500000 2.813206 93.2068 5.593649 0.856440
6561.49 6561.5 0.500000 2.809898 93.3445 5.620332 0.860343
6561.9 6561.9 0.500000 2.810207 93.3651 5.619980 0.859072
6562.3 6562.3 0.500000 2.812457 93.3739 5.607802 0.856407
6562.7 6562.7 0.500000 2.814645 93.378 5.595796 0.853851
6563.1 6563.1 0.500000 2.816088 93.3689 5.587164 0.851875
6563.5 6563.5 0.500000 2.816299 93.372 5.586177 0.850508
6563.9 6563.9 0.500000 2.815651 93.3564 5.588877 0.850467
6564.3 6564.3 0.500000 2.814518 93.359 5.595319 0.850809
6564.7 6564.7 0.500000 2.813335 93.4382 5.606699 0.852393
6565.1 6565.1 0.500000 2.812428 93.4341 5.611579 0.852540
6565.5 6565.5 0.500000 2.811790 93.4938 5.618771 0.853744
6565.9 6565.9 0.500000 2.811463 93.4846 5.620084 0.853534
6566.3 6566.3 0.500000 2.811255 93.4922 5.621711 0.853959
6566.7 6566.7 0.500000 2.810875 93.4876 5.623552 0.854732
6567.1 6567.1 0.500000 2.810356 93.4869 5.626429 0.855117
6567.5 6567.5 0.500000 2.809310 93.4757 5.631578 0.856357
6567.9 6567.9 0.500000 2.807667 93.4749 5.640862 0.858150
6568.3 6568.3 0.500000 2.805480 93.4736 5.653118 0.860304
6568.7 6568.7 0.500000 2.803052 93.4651 5.666419 0.863135
6570.09 6570.08 0.710000 2.793583 132.737 8.123820 1.239288
6574.59 6574.58 0.760000 2.741856 142.102 9.158688 1.395932
6579.4 6579.39 0.810000 2.679794 151.603 10.3961 1.566657
6584.52 6584.51 0.860000 2.652557 161.128 11.3549 1.696981
6589.94 6589.93 0.910000 2.647188 170.593 12.0865 1.839536
6595.66 6595.65 0.960000 2.670621 180.141 12.4672 1.931772
6601.69 6601.68 1.010000 2.685843 189.197 12.8964 2.020588
6608.02 6608.01 1.060000 2.684523 199.066 13.587 2.121426
6614.66 6614.65 1.110000 2.676927 208.478 14.3379 2.225150
6621.61 6621.6 1.160000 2.669194 217.926 15.1041 2.350734
6628.85 6628.84 1.210000 2.667638 227.199 15.7713 2.478810
6636.4 6636.4 1.260000 2.649324 236.839 16.7441 2.648101
6644.27 6644.26 1.310000 2.628181 246.266 17.7828 2.826155
6652.43 6652.42 1.360000 2.609807 255.99 18.8279 3.025680
6660.9 6660.89 1.410000 2.596568 265.688 19.8016 3.206830
6669.67 6669.66 1.460000 2.588741 275.225 20.6737 3.350600
6678.74 6678.74 1.510000 2.581575 284.728 21.5412 3.498920
6688.12 6688.12 1.560000 2.567523 294.156 22.5695 3.693483
6697.8 6697.8 1.610000 2.553407 303.51 23.6182 3.913316
6707.79 6707.79 1.660000 2.544545 312.83 24.5601 4.114444
6718.09 6718.09 1.710000 2.534410 322.439 25.5723 4.311413
6728.69 6728.69 1.760000 2.518630 331.966 26.7464 4.532818
6739.6 6739.6 1.810000 2.501351 341.513 27.9949 4.771646
6750.8 6750.81 1.860000 2.482854 350.676 29.2824 5.037262
6762.32 6762.32 1.910000 2.465961 359.75 30.5522 5.307783
6774.14 6774.14 1.960000 2.451093 368.876 31.7966 5.577513
6786.27 6786.27 2.010000 2.435513 378.006 33.0953 5.866529
6798.7 6798.7 2.060000 2.419696 386.923 34.4159 6.156229
6811.43 6811.43 2.110000 2.403345 372.381 33.6684 6.065292
6824.47 6824.47 2.160000 2.387764 402.654 36.9775 6.711706
6837.82 6837.82 2.210000 2.372641 412.534 38.4619 7.048747
6851.47 6851.47 2.260000 2.356052 421.015 39.9092 7.390052
6865.43 6865.42 2.310000 2.338355 429.304 41.4216 7.751112
6879.68 6879.68 2.360000 2.319687 439.124 43.1672 8.159330
6894.24 6894.24 2.410000 2.300683 449.1 44.9948 8.584303
6909.11 6909.11 2.460000 2.282472 458.181 46.7484 9.000973
6924.28 6924.28 2.510000 2.265079 466.391 48.4208 9.412060
6939.77 6939.76 2.560000 2.247184 474.849 50.1892 9.854275
6955.54 6955.54 2.610000 2.229164 483.123 51.9921 10.313
6971.63 6971.63 2.660000 2.210548 491.296 53.865 10.7974
6988.02 6988.02 2.710000 2.191746 500.22 55.8848 11.3203
7004.73 7004.72 2.760000 2.172965 508.432 57.8791 11.8445
7021.72 7021.72 2.810000 2.153607 516.285 59.9219 12.3862
7039.03 7039.03 2.860000 2.133888 523.953 62.023 12.9533
7056.64 7056.64 2.910000 2.113876 531.897 64.2357 13.5573
7074.56 7074.56 2.960000 2.094354 535.708 65.9714 14.0714
7092.78 7092.78 3.010000 2.074676 548.462 68.8844 14.8515
7111.3 7111.3 3.060000 2.055224 555.083 71.0846 15.4809
7130.13 7130.13 3.110000 2.096613 535.202 65.7614 14.4159
7149.27 7149.27 3.160000 2.055240 550.101 70.4461 15.6169
7168.71 7168.71 3.210000 2.030837 560.101 73.4987 16.4732
7188.45 7188.45 3.260000 2.017059 565.281 75.2074 17.0379
7208.5 7208.5 3.310000 1.993631 573.829 78.1544 17.9002
7228.86 7228.86 3.360000 1.970986 581.418 81.0016 18.76
7249.52 7249.52 3.410000 1.950811 586.962 83.4405 19.5382
7270.48 7270.48 3.460000 1.930922 596.081 86.4393 20.463
7281.08 7281.08 3.490000 1.920449 589.632 86.4041 20.5661