File: xdidata/Mn/Mn-K-Petedunnite.xdi
# XDI/1.0 BlueSky/1.10.0 BMM/2023-1.0-py310-tiled
# Beamline.name: BMM (06BM) -- Beamline for Materials Measurement (NIST)
# Beamline.xray_source: NSLS-II three-pole wiggler
# Beamline.collimation: paraboloid mirror, 5 nm Rh on 30 nm Pt
# Beamline.focusing: not in use
# Beamline.harmonic_rejection: flat mirror, Si stripe, pitch = 7.0 mrad relative to beam
# Beamline.software: Bluesky 1.10.0, Ophyd 1.7.0, DataBroker 2.0.0b13, Python 3.10.8, 2023-1.0-py310-tiled
# Detector.I0: 10 cm N2
# Detector.I1: 25 cm N2
# Detector.I2: 25 cm N2
# Detector.fluorescence: SII Vortex ME4 (4-element silicon drift)
# Detector.deadtime_correction: Xspress3
# Element.symbol: Mn
# Element.edge: K
# Element.reference: Mn
# Element.reference_material: Mn metal powder
# Facility.name: NSLS-II
# Facility.energy: 3.0
# Facility.current: 398.9
# Facility.mode: top-off
# Facility.GUP: 301027
# Facility.SAF: 310583
# Facility.cycle: 2023-2
# Mono.name: Si(111)
# Mono.d_spacing: 3.13519
# Mono.encoder_resolution: 0.0000050 deg/ct
# Mono.angle_offset: 16.0754 deg
# Mono.scan_mode: pseudo channel cut
# Mono.scan_type: step
# Mono.direction: forward in energy
# Sample.name: Ca(Zn,Mn,Fe,Mg)Si2O6
# Sample.prep: powder on tape
# Sample.x: 119.711 mm
# Sample.y: 114.376 mm
# Sample.SDD_position: 25.000 mm
# Scan.experimenters: Bruce Ravel
# Scan.edge_energy: 6539.0
# Scan.start_time: 2023-06-27T11:13:01
# Scan.end_time: 2023-06-27T11:29:25
# Scan.transient_id: 85125
# Scan.uid: 5b04dda5-23be-4ab9-b0a8-2d0e256397f4
# Scan.plot_hint: (Mn1+Mn2+Mn3+Mn4)/I0  --  ($8+$9+$10+$11)/$5
# Column.1: energy eV
# Column.2: requested_energy eV
# Column.3: measurement_time seconds
# Column.4: xmu
# Column.5: I0 nA
# Column.6: It nA
# Column.7: Ir nA
# Column.8: Mn1
# Column.9: Mn2
# Column.10: Mn3
# Column.11: Mn4
# ///////////
# sample courtesy Martin Stennett, University of Sheffield
# -----------
# energy  requested_energy  measurement_time  xmu  I0  It  Ir  Mn1  Mn2  Mn3  Mn4
  6339.003  6339.000  2.000  6.793716  585.743  136.944  6.576862  1237.2  1001.06  774.048  967.064
  6379.010  6379.000  2.000  6.705983  591.326  143.844  7.286903  1247.24  958.059  838.054  922.063
  6419.005  6419.000  2.000  6.669667  597.939  151.195  8.071952  1248.87  1003.07  774.052  962.069
  6459.001  6459.000  2.000  6.600328  593.403  155.863  8.744752  1151.46  1002.07  805.056  958.072
  6498.984  6499.000  2.000  6.739759  599.025  163.217  9.542531  1191.07  1005.07  840.061  1001.08
  6514.998  6515.000  2.000  6.913484  599.437  165.769  9.751866  1259.98  1108.08  857.065  919.075
  6523.001  6523.000  2.000  6.968678  599.472  166.933  9.747980  1284.3  998.074  869.067  1026.09
  6529.292  6529.300  2.000  6.962081  599.332  167.905  9.570482  1172.36  1078.08  911.068  1011.08
  6530.497  6530.500  2.000  7.137019  599.001  167.939  9.481341  1262.84  1022.08  943.072  1047.09
  6531.701  6531.700  2.000  7.336283  598.899  168.067  9.368498  1342.45  1126.09  879.068  1046.09
  6532.898  6532.900  2.000  7.413690  598.892  168.256  9.212508  1266.75  1119.09  947.073  1107.09
  6534.102  6534.100  2.000  7.563765  598.909  168.41  8.974789  1309.76  1148.09  997.077  1075.09
  6535.307  6535.300  2.000  7.567793  598.813  168.57  8.587200  1291.44  1165.09  965.074  1110.09
  6536.500  6536.500  2.000  7.659793  598.867  168.81  7.867140  1341.94  1120.09  974.075  1151.1
  6537.701  6537.700  2.000  7.956401  598.744  168.933  5.949711  1383.58  1177.09  1049.08  1154.1
  6538.902  6538.900  2.000  8.554913  598.829  169.109  2.303269  1471.64  1307.1  1140.09  1204.1
  6540.104  6540.100  2.000  9.733517  598.714  169.295  1.162757  1706.26  1491.12  1254.1  1376.12
  6541.306  6541.300  2.000  9.365565  598.882  169.526  0.800728  1597.55  1421.11  1205.1  1385.12
  6542.503  6542.500  2.000  9.769259  598.726  169.689  0.721988  1656.77  1464.11  1373.11  1355.12
  6543.699  6543.700  2.000  11.4296  598.836  169.855  0.644287  1852.03  1724.13  1617.13  1651.14
  6544.903  6544.900  2.000  17.3747  600.663  170.626  0.527835  2809.7  2714.22  2468.21  2444.22
  6546.105  6546.100  2.000  28.589  600.657  170.702  0.464130  4666.02  4341.38  4228.38  3936.37
  6547.299  6547.300  2.000  41.9465  600.544  170.703  0.370951  6534.89  6447.61  6202.61  6005.62
  6548.509  6548.500  2.000  51.5787  600.434  170.764  0.272562  8259.24  7843.79  7693.79  7172.77
  6549.704  6549.700  2.000  63.4997  600.397  170.902  0.196944  10028.9  9764.06  9376.05  8956.04
  6550.903  6550.900  2.000  80.4521  600.406  171.005  0.143369  12807.7  12285.4  11944.5  11266.4
  6552.104  6552.100  2.000  88.9764  600.336  171.051  0.107449  14063.8  13725.7  13354.7  12271.6
  6553.300  6553.300  2.000  80.002  600.274  171.236  0.082409  12774.9  12184.4  12129.5  10934.4
  6554.505  6554.500  2.000  75.8707  600.59  171.547  0.066593  12114.2  11589.3  11285.3  10578.3
  6555.706  6555.700  2.000  73.5166  600.921  171.877  0.060151  11627.9  11250.3  10996.3  10303.2
  6556.905  6556.900  2.000  64.7419  601.335  172.3  0.062436  10377.4  9830.08  9592.09  9132.07
  6558.105  6558.100  2.000  54.6618  601.668  172.63  0.071492  8618.69  8403.88  8168.88  7696.86
  6559.301  6559.300  2.000  51.1439  601.916  172.81  0.081031  8176.92  7780.79  7701.8  7124.78
  6560.506  6560.500  2.000  50.2606  602.067  173.09  0.087362  8104.95  7602.77  7466.78  7085.77
  6561.708  6561.700  2.000  49.1285  601.814  173.214  0.088571  7817.96  7562.77  7350.76  6834.74
  6562.903  6562.900  2.000  47.4113  601.31  173.284  0.086566  7574.72  7288.73  7075.72  6569.7
  6564.000  6564.000  2.000  47.8795  601.884  173.566  0.084917  7582.69  7446.75  7100.74  6687.73
  6568.069  6568.060  2.000  49.6182  602.091  174.239  0.081315  7875.36  7594.77  7475.78  6928.76
  6572.428  6572.420  2.000  44.8023  604.307  175.62  0.082440  7165.25  6842.69  6707.69  6358.69
  6577.088  6577.080  2.000  44.3324  604.591  176.396  0.079717  7181.91  6761.67  6517.67  6341.68
  6582.061  6582.050  2.000  48.2053  604.686  177.144  0.072575  7746.79  7334.75  7272.77  6794.76
  6587.341  6587.330  2.000  54.2376  604.567  177.909  0.069684  8531.62  8445.9  8123.88  7688.88
  6592.918  6592.910  2.000  55.535  605.175  178.938  0.081519  8902.58  8569.93  8398.93  7736.91
  6598.803  6598.790  2.000  54.5427  604.87  179.726  0.094425  8751.58  8478.91  8040.89  7719.9
  6604.988  6604.980  2.000  52.2667  604.964  180.787  0.096469  8385.92  8091.86  7797.85  7343.84
  6611.485  6611.480  2.000  52.7685  605.346  181.834  0.088031  8436.57  8118.87  7900.88  7486.88
  6618.286  6618.280  2.000  51.6413  605.611  182.961  0.082562  8284.97  7946.85  7794.86  7247.84
  6625.389  6625.380  2.000  50.6806  605.905  184.154  0.086744  8177.1  7768.84  7412.81  7348.86
  6632.797  6632.790  2.000  50.9238  606.141  185.495  0.093640  8213.45  7845.85  7529.84  7277.85
  6640.513  6640.510  2.000  51.589  606.378  186.712  0.090395  8287.84  8045.88  7625.85  7322.87
  6648.527  6648.520  2.000  52.3607  606.638  188.074  0.094785  8356.29  8110.9  7777.88  7518.9
  6656.860  6656.850  2.000  52.5025  606.823  189.366  0.104451  8325.99  8179.92  7885.9  7467.9
  6665.484  6665.480  2.000  53.3555  607.123  190.865  0.107658  8572.54  8377.95  7996.92  7445.9
  6674.416  6674.410  2.000  53.6239  607.35  192.327  0.102074  8574.63  8333.95  8016.93  7642.94
  6683.659  6683.650  2.000  53.1693  607.651  193.889  0.101208  8554.55  8143.94  7997.94  7611.95
  6693.195  6693.190  2.000  51.9924  607.816  195.49  0.106410  8455.11  7876.9  7896.92  7372.91
  6703.047  6703.040  2.000  51.9577  609.961  197.728  0.116429  8357.39  7968.92  7847.92  7517.94
  6713.189  6713.190  2.000  52.7257  610.017  199.385  0.123348  8413.68  8217.97  8024.96  7506.95
  6723.652  6723.650  2.000  53.1024  610.188  201.063  0.124536  8580.53  8211.98  8044.98  7564.97
  6734.420  6734.410  2.000  52.8332  610.437  202.913  0.125658  8572.37  8324.01  7814.96  7539.99
  6745.470  6745.470  2.000  52.8483  610.629  204.724  0.128361  8510.73  8403.03  7976.99  7379.97
  6756.852  6756.850  2.000  53.2406  610.791  206.607  0.135864  8460.85  8348.03  8136.02  7574.01
  6768.524  6768.520  2.000  53.3291  610.916  208.528  0.138788  8486.49  8255.04  8241.05  7597.03
  6780.506  6780.500  2.000  53.504  611.175  210.556  0.146800  8586.15  8368.05  8130.03  7616.03
  6792.796  6792.790  2.000  52.9636  610.717  212.46  0.156972  8567.66  8174.04  8089.04  7515.03
  6805.382  6805.380  2.000  53.472  610.996  214.547  0.162742  8535.94  8176.05  8155.06  7804.09
  6818.273  6818.270  2.000  53.2674  609.853  216.241  0.164096  8628.11  8333.08  7970.04  7554.05
  6831.474  6831.470  2.000  53.4182  608.655  218.012  0.168346  8473.98  8280.09  8082.06  7677.09
  6844.981  6844.980  2.000  53.768  607.391  219.724  0.175637  8593.97  8361.11  8051.07  7652.1
  6858.791  6858.790  2.000  53.7788  607.973  222.184  0.184692  8680.74  8333.12  8168.11  7514.09
  6872.902  6872.900  2.000  52.9404  608.169  224.53  0.194317  8556.42  8181.11  8018.09  7441.09
  6887.323  6887.320  2.000  53.8251  608.026  226.864  0.203267  8562.68  8377.15  8122.12  7665.14
  6902.048  6902.050  2.000  53.1897  607.643  229.162  0.210914  8348.9  8344.16  8162.13  7465.12
  6917.078  6917.080  2.000  53.7631  606.447  231.167  0.217551  8504.97  8338.18  8082.14  7679.18
  6932.414  6932.410  2.000  54.0493  606.662  233.765  0.226792  8567.11  8466.22  8122.16  7634.19
  6948.051  6948.050  2.000  53.6974  606.615  236.335  0.235417  8575.04  8314.22  8128.19  7556.2
  6963.990  6963.990  2.000  54.8082  605.824  238.674  0.246811  8557.39  8639.28  8215.2  7792.25
  6980.243  6980.240  2.000  54.7323  604.861  240.953  0.259038  8710.69  8386.26  8277.23  7731.26
  6996.794  6996.790  2.000  54.1432  604.073  243.399  0.270366  8536.72  8425.27  8205.22  7539.23
  7013.647  7013.650  2.000  55.2258  603.105  245.789  0.280502  8696.03  8567.33  8291.28  7752.3
  7030.812  7030.810  2.000  54.7425  602.255  248.252  0.292154  8765.14  8456.31  8076.24  7671.29
  7048.282  7048.280  2.000  55.1517  601.145  250.698  0.304928  8682.2  8414.33  8302.3  7755.34
  7066.051  7066.050  2.000  55.1128  600.046  253.231  0.317916  8569.2  8421.35  8202.29  7877.38
  7084.134  7084.130  2.000  55.3621  595.975  254.472  0.330765  8569.31  8397.36  8200.32  7827.39
  7102.514  7102.510  2.000  56.0783  597.385  258.142  0.347256  8693.14  8611.42  8376.37  7819.4
  7121.206  7121.200  2.000  56.3405  594.494  259.53  0.357471  8681.59  8522.5  8409.47  7880.51
  7140.190  7140.190  2.000  56.4641  591.098  260.642  0.368459  8596.96  8581.64  8271.58  7925.64
  7159.497  7159.490  2.000  56.6239  590.218  263.503  0.384932  8669.62  8543.64  8412.6  7794.63
  7179.093  7179.090  2.000  56.7939  587.719  265.555  0.401669  8633.86  8581.68  8368.63  7794.66