File: xdidata/Mn/Mn-Manganosite.xdi
# XDI/1.0 BlueSky/1.10.0 BMM/2023-1.0-py310-tiled
# Beamline.name: BMM (06BM) -- Beamline for Materials Measurement (NIST)
# Beamline.xray_source: NSLS-II three-pole wiggler
# Beamline.collimation: paraboloid mirror, 5 nm Rh on 30 nm Pt
# Beamline.focusing: not in use
# Beamline.harmonic_rejection: flat mirror, Si stripe, pitch = 7.0 mrad relative to beam
# Beamline.software: Bluesky 1.10.0, Ophyd 1.7.0, DataBroker 2.0.0b13, Python 3.10.8, 2023-1.0-py310-tiled
# Detector.I0: 10 cm N2
# Detector.I1: 25 cm N2
# Detector.I2: 25 cm N2
# Element.symbol: Mn
# Element.edge: K
# Element.reference: Mn
# Element.reference_material: Mn metal powder
# Facility.name: NSLS-II
# Facility.energy: 3.0
# Facility.current: 400.6
# Facility.mode: top-off
# Facility.GUP: 123456
# Facility.SAF: 301027
# Facility.cycle: 2023-2
# Mono.name: Si(111)
# Mono.d_spacing: 3.13519
# Mono.encoder_resolution: 0.0000050 deg/ct
# Mono.angle_offset: 16.0754 deg
# Mono.scan_mode: pseudo channel cut
# Mono.scan_type: step
# Mono.direction: forward in energy
# Sample.name: MnO
# Sample.prep: powder on tape
# Sample.x: 123.848 mm
# Sample.y: 114.690 mm
# Sample.SDD_position: 205.000 mm
# Scan.experimenters: Bruce Ravel
# Scan.edge_energy: 6539.0
# Scan.start_time: 2023-05-08T11:11:23
# Scan.end_time: 2023-05-08T11:19:42
# Scan.transient_id: 75367
# Scan.uid: eeff05dd-5cd6-453d-93c2-04dfcb22806d
# Scan.plot_hint: ln(I0/It)  --  ln($5/$6)
# Column.1: energy eV
# Column.2: requested_energy eV
# Column.3: measurement_time seconds
# Column.4: xmu
# Column.5: I0 nA
# Column.6: It nA
# Column.7: Ir nA
# ///////////
# Welcome to BMM
# -----------
# energy  requested_energy  measurement_time  xmu  I0  It  Ir
  6339.006  6339.000  0.500  2.306912  149.757  14.9111  0.767878
  6368.985  6369.000  0.500  2.264728  150.402  15.6205  0.837026
  6399.012  6399.000  0.500  2.224166  150.906  16.3216  0.909047
  6429.009  6429.000  0.500  2.183874  151.408  17.0492  0.985836
  6459.005  6459.000  0.500  2.145083  151.427  17.7258  1.062647
  6488.981  6489.000  0.500  2.107318  152.429  18.5298  1.147001
  6510.986  6511.000  0.500  2.082307  152.742  19.0382  1.195271
  6516.992  6517.000  0.500  2.076198  152.795  19.1614  1.201441
  6522.988  6523.000  0.500  2.070312  152.88  19.2852  1.200487
  6528.998  6529.000  0.500  2.067196  152.955  19.355  1.176326
  6529.884  6529.900  0.500  2.067093  152.956  19.3571  1.168019
  6530.786  6530.800  0.500  2.067246  152.977  19.3567  1.158235
  6531.689  6531.700  0.500  2.067458  152.974  19.3523  1.145410
  6532.590  6532.600  0.500  2.067831  152.978  19.3456  1.128721
  6533.487  6533.500  0.500  2.068714  152.982  19.329  1.105718
  6534.391  6534.400  0.500  2.069712  152.987  19.3104  1.074412
  6535.292  6535.300  0.500  2.071165  152.976  19.2809  1.026787
  6536.193  6536.200  0.500  2.073878  152.98  19.2292  0.947060
  6537.090  6537.100  0.500  2.078139  152.977  19.147  0.780067
  6537.999  6538.000  0.500  2.086743  152.976  18.9828  0.446266
  6538.897  6538.900  0.500  2.108820  152.965  18.5671  0.203912
  6539.796  6539.800  0.500  2.124275  152.965  18.2823  0.132741
  6540.692  6540.700  0.500  2.123893  152.957  18.2883  0.099950
  6541.598  6541.600  0.500  2.141632  152.966  17.9678  0.085362
  6542.503  6542.500  0.500  2.210764  152.966  16.7676  0.078140
  6543.399  6543.400  0.500  2.360090  152.993  14.4443  0.059994
  6544.296  6544.300  0.500  2.556502  152.996  11.8687  0.042002
  6545.199  6545.200  0.500  2.695510  152.986  10.3278  0.033370
  6546.102  6546.100  0.500  2.775735  152.972  9.530683  0.027413
  6546.998  6547.000  0.500  2.862959  152.991  8.735738  0.021210
  6547.898  6547.900  0.500  2.966306  152.989  7.877907  0.015260
  6548.804  6548.800  0.500  3.113423  152.989  6.800139  0.010505
  6549.702  6549.700  0.500  3.358350  152.996  5.323132  0.006543
  6550.594  6550.600  0.500  3.527954  152.97  4.491964  0.004463
  6551.502  6551.500  0.500  3.585394  152.964  4.241037  0.003532
  6552.404  6552.400  0.500  3.636649  153.495  4.043122  0.002900
  6553.298  6553.300  0.500  3.736077  153.508  3.660770  0.002208
  6554.200  6554.200  0.500  3.811536  153.512  3.394785  0.001889
  6555.104  6555.100  0.500  3.684026  153.526  3.856816  0.002051
  6555.997  6556.000  0.500  3.452544  153.556  4.862359  0.002332
  6556.900  6556.900  0.500  3.249205  153.549  5.958478  0.003018
  6557.803  6557.800  0.500  3.125951  153.514  6.738511  0.003714
  6558.700  6558.700  0.500  3.063941  153.523  7.170028  0.003981
  6559.598  6559.600  0.500  3.038029  153.534  7.358747  0.004597
  6560.502  6560.500  0.500  3.017923  153.513  7.507194  0.004752
  6561.402  6561.400  0.500  2.991372  153.419  7.704456  0.004757
  6562.299  6562.300  0.500  2.972946  153.201  7.836616  0.004723
  6563.202  6563.200  0.500  2.973541  153.49  7.846729  0.004777
  6564.003  6564.000  0.500  2.988757  153.525  7.729988  0.004591
  6567.036  6567.010  0.500  3.165203  153.538  6.480178  0.003784
  6570.192  6570.200  0.500  3.075885  153.537  7.085534  0.004039
  6573.554  6573.560  0.500  2.965502  153.572  7.914253  0.004610
  6577.084  6577.080  0.500  2.964597  153.626  7.924204  0.004453
  6580.788  6580.780  0.500  2.952709  153.608  8.018057  0.004042
  6584.655  6584.650  0.500  2.993714  153.627  7.696862  0.003841
  6588.704  6588.700  0.500  3.044549  153.631  7.315557  0.003761
  6592.914  6592.910  0.500  3.218927  153.63  6.144900  0.003619
  6597.297  6597.290  0.500  3.246280  153.674  5.980805  0.003854
  6601.850  6601.850  0.500  3.171544  153.665  6.444545  0.004241
  6606.594  6606.580  0.500  3.061828  153.687  7.192872  0.004611
  6611.483  6611.480  0.500  3.004381  153.736  7.620630  0.004499
  6616.563  6616.550  0.500  2.943953  153.712  8.094023  0.004612
  6621.802  6621.790  0.500  2.987242  153.707  7.750891  0.004320
  6627.220  6627.210  0.500  3.012406  153.721  7.558935  0.004499
  6632.797  6632.790  0.500  2.991823  153.738  7.717011  0.004748
  6638.559  6638.550  0.500  3.032692  153.753  7.408727  0.004400
  6644.491  6644.480  0.500  3.060600  153.748  7.204556  0.004325
  6650.589  6650.580  0.500  2.986952  153.774  7.756520  0.004933
  6656.862  6656.850  0.500  2.909769  153.75  8.377575  0.005752
  6663.302  6663.290  0.500  2.969893  153.757  7.889107  0.005533
  6669.908  6669.900  0.500  2.998533  153.767  7.666829  0.005151
  6676.700  6676.690  0.500  2.948055  153.713  8.060937  0.005312
  6683.662  6683.650  0.500  2.955774  153.756  8.001210  0.005071
  6690.780  6690.770  0.500  2.975266  153.744  7.846139  0.005112
  6698.076  6698.070  0.500  2.949891  153.69  8.044977  0.005559
  6705.566  6705.550  0.500  2.872563  153.675  8.690880  0.006355
  6713.204  6713.190  0.500  2.824965  153.658  9.113573  0.006665
  6721.009  6721.000  0.500  2.854754  153.633  8.844655  0.006558
  6729.002  6728.990  0.500  2.881309  153.591  8.610510  0.006352
  6737.165  6737.150  0.500  2.878150  153.528  8.634196  0.006407
  6745.481  6745.470  0.500  2.863474  153.454  8.757644  0.006574
  6753.990  6753.970  0.500  2.844085  153.408  8.926436  0.006922
  6762.660  6762.650  0.500  2.817839  153.335  9.159420  0.007232
  6771.497  6771.490  0.500  2.806826  153.236  9.254882  0.007248
  6780.516  6780.500  0.500  2.772593  153.224  9.576467  0.007905
  6789.705  6789.690  0.500  2.756416  153.17  9.729204  0.008421
  6799.063  6799.050  0.500  2.756852  152.594  9.688373  0.008453
  6808.582  6808.570  0.500  2.757806  152.613  9.680376  0.008573
  6818.285  6818.270  0.500  2.747441  152.466  9.771827  0.008619
  6828.167  6828.150  0.500  2.717863  152.133  10.0431  0.009005
  6838.205  6838.190  0.500  2.698048  152.337  10.2579  0.009467
  6848.413  6848.400  0.500  2.685204  152.184  10.38  0.009823
  6858.800  6858.790  0.500  2.667275  152.13  10.5641  0.010200
  6869.368  6869.350  0.500  2.659247  152.056  10.6441  0.010521
  6880.086  6880.080  0.500  2.654428  152.02  10.693  0.010907
  6890.991  6890.980  0.500  2.641282  151.852  10.8225  0.011253
  6902.068  6902.050  0.500  2.613780  151.639  11.1086  0.011778
  6913.305  6913.290  0.500  2.594071  151.308  11.305  0.012109
  6924.726  6924.710  0.500  2.582455  150.996  11.4135  0.012580
  6936.293  6936.290  0.500  2.566347  150.7  11.5761  0.012845
  6948.074  6948.050  0.500  2.551806  150.443  11.7256  0.013469
  6959.994  6959.980  0.500  2.538048  150.246  11.8725  0.013990
  6972.092  6972.080  0.500  2.527640  150.032  11.9797  0.014338
  6984.366  6984.350  0.500  2.511184  149.721  12.1531  0.015013
  6996.813  6996.790  0.500  2.493112  149.451  12.3525  0.015570
  7009.408  7009.410  0.500  2.475251  149.073  12.5433  0.016137
  7022.193  7022.190  0.500  2.458789  148.765  12.7252  0.016650
  7035.153  7035.150  0.500  2.441011  148.465  12.9272  0.017357
  7048.282  7048.280  0.500  2.427669  148.122  13.0706  0.017902
  7061.583  7061.580  0.500  2.414625  147.792  13.2128  0.018541
  7075.062  7075.050  0.500  2.396759  146.336  13.3184  0.019130
  7088.714  7088.700  0.500  2.380399  147.041  13.6033  0.020090
  7102.508  7102.510  0.500  2.362379  146.632  13.8121  0.020772
  7116.507  7116.500  0.500  2.345967  145.952  13.9755  0.021494
  7130.673  7130.660  0.500  2.330072  145.019  14.1087  0.021797
  7145.023  7144.990  0.500  2.314699  144.604  14.2863  0.022713
  7159.539  7159.490  0.500  2.298717  144.285  14.4845  0.023670
  7174.144  7174.160  0.500  2.281244  143.684  14.6783  0.024451
  7189.030  7189.000  0.500  2.264279  143.23  14.8823  0.025483
  7204.056  7204.020  0.500  2.247627  142.606  15.0663  0.026450
  7219.221  7219.200  0.500  2.230289  142.018  15.2666  0.027482
  7234.565  7234.560  0.500  2.213413  141.602  15.4809  0.028514
  7250.134  7250.090  0.500  2.197291  140.998  15.6654  0.029506
  7265.806  7265.790  0.500  2.181598  139.501  15.7443  0.030451
  7281.650  7281.660  0.500  2.164970  140.597  16.134  0.031932
  7297.695  7297.710  0.500  2.147907  139.987  16.3404  0.033201
  7313.898  7313.920  0.500  2.131177  139.585  16.5684  0.034427
  7330.292  7330.310  0.500  2.114282  139.075  16.7892  0.035837
  7346.853  7346.870  0.500  2.097346  138.516  17.0072  0.037235
  7363.581  7363.600  0.500  2.080512  137.963  17.2269  0.038683
  7380.507  7380.500  0.500  2.063501  137.431  17.4549  0.040026
  7391.853  7391.860  0.500  2.052362  137.077  17.6049  0.041139