File: xdidata/Mn/Mn-Olmite.xdi
# XDI/1.0 BlueSky/1.10.0 BMM/2023-1.0-py310-tiled
# Beamline.name: BMM (06BM) -- Beamline for Materials Measurement (NIST)
# Beamline.xray_source: NSLS-II three-pole wiggler
# Beamline.collimation: paraboloid mirror, 5 nm Rh on 30 nm Pt
# Beamline.focusing: not in use
# Beamline.harmonic_rejection: flat mirror, Si stripe, pitch = 7.0 mrad relative to beam
# Beamline.software: Bluesky 1.10.0, Ophyd 1.7.0, DataBroker 2.0.0b13, Python 3.10.8, 2023-1.0-py310-tiled
# Detector.I0: 10 cm N2
# Detector.I1: 25 cm N2
# Detector.I2: 25 cm N2
# Element.symbol: Mn
# Element.edge: K
# Element.reference: Mn
# Element.reference_material: Mn metal powder
# Facility.name: NSLS-II
# Facility.energy: 3.0
# Facility.current: 400.5
# Facility.mode: top-off
# Facility.GUP: 123456
# Facility.SAF: 301027
# Facility.cycle: 2023-2
# Mono.name: Si(111)
# Mono.d_spacing: 3.13519
# Mono.encoder_resolution: 0.0000050 deg/ct
# Mono.angle_offset: 16.0754 deg
# Mono.scan_mode: pseudo channel cut
# Mono.scan_type: step
# Mono.direction: forward in energy
# Sample.name: CaMnSiO3(OH)(OH)
# Sample.prep: PEG pellet
# Sample.x: 123.848 mm
# Sample.y: 114.690 mm
# Sample.SDD_position: 205.000 mm
# Scan.experimenters: Bruce Ravel
# Scan.edge_energy: 6539.0
# Scan.start_time: 2023-05-08T11:54:45
# Scan.end_time: 2023-05-08T12:02:39
# Scan.transient_id: 75372
# Scan.uid: 18507fd3-c928-485e-876b-9c4d8e591d94
# Scan.plot_hint: ln(I0/It)  --  ln($5/$6)
# Column.1: energy eV
# Column.2: requested_energy eV
# Column.3: measurement_time seconds
# Column.4: xmu
# Column.5: I0 nA
# Column.6: It nA
# Column.7: Ir nA
# ///////////
# Olmite, N'Chwanning II Mine, Kuruma, Kalahari Manganese Field, Northoern Cape, SA
# -----------
# energy  requested_energy  measurement_time  xmu  I0  It  Ir
  6338.998  6339.000  0.500  2.607968  150.794  11.1112  0.571176
  6369.013  6369.000  0.500  2.564067  151.497  11.6639  0.624007
  6399.012  6399.000  0.500  2.521289  152.103  12.2224  0.679499
  6429.017  6429.000  0.500  2.480267  152.626  12.778  0.737907
  6459.015  6459.000  0.500  2.439156  152.677  13.3187  0.797080
  6488.987  6489.000  0.500  2.399732  153.538  13.9324  0.860985
  6510.993  6511.000  0.500  2.371759  153.812  14.3532  0.899874
  6516.992  6517.000  0.500  2.364587  153.895  14.4643  0.905780
  6522.994  6523.000  0.500  2.357853  153.971  14.5692  0.905242
  6528.998  6529.000  0.500  2.352361  154.029  14.655  0.889656
  6529.884  6529.900  0.500  2.351732  154.026  14.6639  0.884003
  6530.784  6530.800  0.500  2.351296  154.025  14.6702  0.876957
  6531.687  6531.700  0.500  2.350601  154.031  14.6809  0.867913
  6532.590  6532.600  0.500  2.350161  154.028  14.6872  0.855736
  6533.487  6533.500  0.500  2.349621  154.01  14.6934  0.840087
  6534.392  6534.400  0.500  2.349688  154.003  14.6917  0.817009
  6535.294  6535.300  0.500  2.350141  153.992  14.684  0.782064
  6536.196  6536.200  0.500  2.350691  153.994  14.6761  0.723869
  6537.093  6537.100  0.500  2.352493  153.996  14.6499  0.601720
  6537.992  6538.000  0.500  2.356564  153.986  14.5894  0.352715
  6538.897  6538.900  0.500  2.373676  153.978  14.3412  0.160339
  6539.794  6539.800  0.500  2.389162  153.981  14.121  0.103563
  6540.696  6540.700  0.500  2.374437  153.966  14.3291  0.078587
  6541.598  6541.600  0.500  2.371560  153.96  14.3699  0.068187
  6542.500  6542.500  0.500  2.382074  153.973  14.2208  0.066119
  6543.397  6543.400  0.500  2.413825  153.98  13.777  0.057208
  6544.296  6544.300  0.500  2.498418  153.982  12.6596  0.044720
  6545.200  6545.200  0.500  2.658989  153.979  10.7814  0.034716
  6546.098  6546.100  0.500  2.812828  153.964  9.243207  0.026793
  6546.998  6547.000  0.500  2.922370  153.981  8.285102  0.020067
  6547.900  6547.900  0.500  3.006461  153.955  7.615613  0.014813
  6548.800  6548.800  0.500  3.096630  153.942  6.958394  0.010853
  6549.697  6549.700  0.500  3.221578  153.945  6.141176  0.007642
  6550.601  6550.600  0.500  3.352554  153.923  5.386507  0.005392
  6551.501  6551.500  0.500  3.442662  153.919  4.922241  0.004047
  6552.398  6552.400  0.500  3.445471  153.902  4.907888  0.003417
  6553.303  6553.300  0.500  3.339400  153.89  5.456650  0.003031
  6554.204  6554.200  0.500  3.236268  153.882  6.049139  0.002988
  6555.097  6555.100  0.500  3.185684  153.872  6.362621  0.002883
  6555.999  6556.000  0.500  3.134357  154.458  6.723203  0.003006
  6556.905  6556.900  0.500  3.075707  154.445  7.128708  0.003291
  6557.803  6557.800  0.500  3.047796  154.421  7.329342  0.003769
  6558.699  6558.700  0.500  3.049038  154.421  7.320258  0.004171
  6559.606  6559.600  0.500  3.052682  154.43  7.294053  0.004415
  6560.500  6560.500  0.500  3.035887  154.417  7.416947  0.004626
  6561.399  6561.400  0.500  3.017420  154.342  7.551511  0.004746
  6562.301  6562.300  0.500  3.006494  154.074  7.621251  0.004589
  6563.204  6563.200  0.500  3.005038  154.371  7.647072  0.004606
  6564.000  6564.000  0.500  3.009845  154.392  7.611423  0.004643
  6567.031  6567.010  0.500  2.986286  154.431  7.794819  0.004462
  6570.194  6570.200  0.500  2.933027  154.457  8.222642  0.004750
  6573.555  6573.560  0.500  2.892752  154.487  8.562188  0.004899
  6577.080  6577.080  0.500  2.887203  154.545  8.613104  0.004668
  6580.782  6580.780  0.500  2.905759  154.571  8.456163  0.004392
  6584.651  6584.650  0.500  2.915975  154.6  8.371780  0.003935
  6588.702  6588.700  0.500  2.935785  154.616  8.208396  0.004197
  6592.918  6592.910  0.500  2.966418  154.642  7.962102  0.004445
  6597.297  6597.290  0.500  2.987886  154.697  7.795784  0.004901
  6601.861  6601.850  0.500  2.971433  154.72  7.926303  0.005213
  6606.587  6606.580  0.500  2.958731  154.756  8.029477  0.005108
  6611.487  6611.480  0.500  2.947449  154.825  8.124174  0.004771
  6616.561  6616.550  0.500  2.933093  154.837  8.242313  0.004642
  6621.798  6621.790  0.500  2.901757  154.83  8.504290  0.004725
  6627.218  6627.210  0.500  2.873931  154.882  8.747185  0.005019
  6632.799  6632.790  0.500  2.866321  154.914  8.815859  0.005448
  6638.559  6638.550  0.500  2.861780  154.942  8.857561  0.005206
  6644.488  6644.480  0.500  2.857343  154.948  8.897294  0.005141
  6650.589  6650.580  0.500  2.857615  154.981  8.896788  0.005627
  6656.858  6656.850  0.500  2.863474  154.958  8.843470  0.005761
  6663.292  6663.290  0.500  2.863575  154.973  8.843438  0.005903
  6669.907  6669.900  0.500  2.853134  154.965  8.935793  0.005894
  6676.702  6676.690  0.500  2.836898  154.945  9.080866  0.005762
  6683.659  6683.650  0.500  2.821355  154.967  9.224429  0.005759
  6690.782  6690.770  0.500  2.807669  154.959  9.351048  0.005902
  6698.077  6698.070  0.500  2.794426  154.909  9.472688  0.006387
  6705.559  6705.550  0.500  2.781057  154.871  9.597844  0.006784
  6713.198  6713.190  0.500  2.768467  154.847  9.717890  0.007088
  6721.007  6721.000  0.500  2.758368  154.791  9.812986  0.007122
  6728.995  6728.990  0.500  2.746145  154.775  9.932633  0.007238
  6737.159  6737.150  0.500  2.733898  154.71  10.0508  0.007365
  6745.481  6745.470  0.500  2.722786  154.586  10.155  0.007439
  6753.978  6753.970  0.500  2.714041  154.547  10.2416  0.007827
  6762.662  6762.650  0.500  2.704147  154.468  10.3381  0.007984
  6771.501  6771.490  0.500  2.691095  154.386  10.4684  0.008068
  6780.527  6780.500  0.500  2.676341  154.331  10.6202  0.008623
  6789.705  6789.690  0.500  2.661751  154.308  10.7747  0.009111
  6799.065  6799.050  0.500  2.646530  153.761  10.9012  0.009462
  6808.586  6808.570  0.500  2.632937  153.825  11.0549  0.009691
  6818.281  6818.270  0.500  2.618298  153.59  11.2008  0.009721
  6828.161  6828.150  0.500  2.604828  153.305  11.3317  0.009934
  6838.199  6838.190  0.500  2.592376  153.033  11.4533  0.010355
  6848.411  6848.400  0.500  2.578908  152.777  11.5892  0.010697
  6858.800  6858.790  0.500  2.566221  152.74  11.7343  0.011290
  6869.362  6869.350  0.500  2.552345  152.707  11.8957  0.011620
  6880.096  6880.080  0.500  2.538227  152.615  12.0576  0.012203
  6890.991  6890.980  0.500  2.523230  153.033  12.2733  0.012458
  6902.060  6902.050  0.500  2.508126  152.886  12.4481  0.012928
  6913.301  6913.290  0.500  2.493181  152.56  12.6086  0.013286
  6924.720  6924.710  0.500  2.478646  152.214  12.7642  0.013847
  6936.301  6936.290  0.500  2.463792  151.934  12.9313  0.014251
  6948.057  6948.050  0.500  2.448949  151.721  13.1063  0.014721
  6959.994  6959.980  0.500  2.434246  151.491  13.2803  0.015304
  6972.090  6972.080  0.500  2.419700  151.236  13.4522  0.015880
  6984.357  6984.350  0.500  2.404968  150.957  13.6267  0.016470
  6996.790  6996.790  0.500  2.389900  150.639  13.8044  0.017042
  7009.408  7009.410  0.500  2.374651  150.291  13.9842  0.017684
  7022.195  7022.190  0.500  2.359221  150  14.1741  0.018285
  7035.157  7035.150  0.500  2.343772  149.614  14.3577  0.018992
  7048.289  7048.280  0.500  2.328091  149.299  14.5539  0.019634
  7061.590  7061.580  0.500  2.312905  148.968  14.7438  0.020284
  7075.066  7075.050  0.500  2.296930  147.503  14.834  0.020978
  7088.709  7088.700  0.500  2.280868  148.122  15.1374  0.021826
  7102.536  7102.510  0.500  2.265261  147.7  15.3317  0.022701
  7116.509  7116.500  0.500  2.249917  146.964  15.4912  0.023320
  7130.688  7130.660  0.500  2.235300  145.947  15.6105  0.023858
  7145.010  7144.990  0.500  2.219308  145.554  15.8194  0.024682
  7159.495  7159.490  0.500  2.202949  145.162  16.037  0.025805
  7174.146  7174.160  0.500  2.186768  144.528  16.2275  0.026667
  7188.984  7189.000  0.500  2.170498  144.006  16.4341  0.027681
  7204.030  7204.020  0.500  2.154672  143.357  16.621  0.028731
  7219.188  7219.200  0.500  2.138109  142.714  16.8228  0.029830
  7234.585  7234.560  0.500  2.121914  142.197  17.0355  0.031047
  7250.080  7250.090  0.500  2.105705  141.57  17.2376  0.032061
  7265.770  7265.790  0.500  2.089281  139.949  17.3224  0.032836
  7281.641  7281.660  0.500  2.073250  141.119  17.7495  0.034552
  7297.713  7297.710  0.500  2.056857  140.491  17.9625  0.036100
  7313.903  7313.920  0.500  2.040712  140.058  18.1986  0.037405
  7330.292  7330.310  0.500  2.024469  139.481  18.4204  0.038782
  7346.848  7346.870  0.500  2.007824  138.901  18.6517  0.040313
  7363.586  7363.600  0.500  1.991726  138.301  18.8725  0.041784
  7380.479  7380.500  0.500  1.974946  137.686  19.1065  0.043362
  7391.846  7391.860  0.500  1.963666  137.282  19.2665  0.044601