File: xdidata/Dy/Dy-L1-Dy2TiO5.xdi
# XDI/1.0 BlueSky/1.10.0 BMM/2023-1.0-py310-tiled
# Beamline.name: BMM (06BM) -- Beamline for Materials Measurement (NIST)
# Beamline.xray_source: NSLS-II three-pole wiggler
# Beamline.collimation: paraboloid mirror, 5 nm Rh on 30 nm Pt
# Beamline.focusing: not in use
# Beamline.harmonic_rejection: flat mirror, Pt stripe, pitch = 7.0 mrad relative to beam
# Beamline.software: Bluesky 1.10.0, Ophyd 1.7.0, DataBroker 2.0.0b13, Python 3.10.8, 2023-1.0-py310-tiled
# Detector.I0: 10 cm N2
# Detector.I1: 25 cm N2
# Detector.I2: 25 cm N2
# Element.symbol: Dy
# Element.edge: L1
# Element.reference: Dy
# Element.reference_material: Dy2O3
# Facility.name: NSLS-II
# Facility.energy: 3.0
# Facility.current: 400.5
# Facility.mode: top-off
# Facility.GUP: 123456
# Facility.SAF: 301027
# Facility.cycle: 2023-2
# Mono.name: Si(111)
# Mono.d_spacing: 3.13519
# Mono.encoder_resolution: 0.0000050 deg/ct
# Mono.angle_offset: 16.0754 deg
# Mono.scan_mode: pseudo channel cut
# Mono.scan_type: step
# Mono.direction: forward in energy
# Sample.name: Dy2TiO5
# Sample.prep: Powder in PEG pellet
# Sample.x: 149.848 mm
# Sample.y: 114.690 mm
# Sample.SDD_position: 205.000 mm
# Scan.experimenters: Bruce Ravel
# Scan.edge_energy: 9045.8
# Scan.start_time: 2023-05-08T22:08:22
# Scan.end_time: 2023-05-08T22:14:16
# Scan.transient_id: 75661
# Scan.uid: b6a63314-fa7a-4740-850c-fed1dcc4f594
# Scan.plot_hint: ln(I0/It)  --  ln($5/$6)
# Column.1: energy eV
# Column.2: requested_energy eV
# Column.3: measurement_time seconds
# Column.4: xmu
# Column.5: I0 nA
# Column.6: It nA
# Column.7: Ir nA
# ///////////
# sample courtesy Martin Stennett, University of Sheffield
# -----------
# energy  requested_energy  measurement_time  xmu  I0  It  Ir
  8845.835  8845.800  0.500  1.486755  121.771  27.533  2.869866
  8865.873  8865.800  0.500  1.476504  121.355  27.7217  2.925143
  8885.864  8885.800  0.500  1.466889  120.938  27.8933  2.974260
  8905.829  8905.800  0.500  1.457286  120.459  28.0509  3.019833
  8925.828  8925.800  0.500  1.447723  120.174  28.2536  3.072764
  8945.936  8945.800  0.500  1.439297  119.83  28.411  3.116675
  8965.764  8965.800  0.500  1.429732  119.09  28.5068  3.148848
  8985.769  8985.800  0.500  1.420399  118.839  28.7137  3.202167
  9005.789  9005.800  0.500  1.412100  118.403  28.8467  3.248841
  9017.780  9017.800  0.500  1.407437  118.085  28.9036  3.274673
  9021.767  9021.800  0.500  1.405970  117.558  28.8168  3.268609
  9025.767  9025.800  0.500  1.404551  117.975  28.9601  3.289425
  9029.779  9029.800  0.500  1.403186  117.871  28.9742  3.293279
  9033.773  9033.800  0.500  1.402232  117.766  28.9761  3.294547
  9036.276  9036.300  0.500  1.402071  117.7  28.9644  3.292316
  9037.268  9037.300  0.500  1.401773  117.663  28.9639  3.291267
  9038.270  9038.300  0.500  1.401917  117.626  28.9507  3.289048
  9039.273  9039.300  0.500  1.401889  117.593  28.9433  3.287569
  9040.283  9040.300  0.500  1.402082  117.479  28.9097  3.282035
  9041.279  9041.300  0.500  1.402315  116.462  28.6527  3.250831
  9042.283  9042.300  0.500  1.402697  116.533  28.6593  3.249077
  9043.286  9043.300  0.500  1.403103  117.361  28.8513  3.268061
  9044.283  9044.300  0.500  1.403831  117.404  28.8407  3.264044
  9045.280  9045.300  0.500  1.404758  117.394  28.8116  3.254106
  9046.284  9046.300  0.500  1.406632  117.376  28.7532  3.239661
  9047.296  9047.300  0.500  1.408898  117.353  28.6826  3.219555
  9048.290  9048.300  0.500  1.412514  117.319  28.5707  3.189490
  9049.292  9049.300  0.500  1.417426  117.3  28.4261  3.151060
  9050.290  9050.300  0.500  1.422789  117.274  28.2678  3.111226
  9051.292  9051.300  0.500  1.428187  117.247  28.1091  3.072430
  9052.291  9052.300  0.500  1.433556  117.218  27.9518  3.034222
  9053.300  9053.300  0.500  1.438937  117.19  27.7952  2.996487
  9054.299  9054.300  0.500  1.444590  117.17  27.6336  2.960248
  9055.288  9055.300  0.500  1.450967  117.143  27.4518  2.920260
  9056.291  9056.300  0.500  1.458160  117.114  27.2483  2.874304
  9057.287  9057.300  0.500  1.465679  117.089  27.0384  2.827624
  9058.294  9058.300  0.500  1.473950  117.067  26.8106  2.775973
  9059.302  9059.300  0.500  1.483142  117.041  26.5593  2.718166
  9060.295  9060.300  0.500  1.492423  117.01  26.307  2.658974
  9061.285  9061.300  0.500  1.500708  116.968  26.0805  2.606541
  9062.293  9062.300  0.500  1.507657  116.782  25.8588  2.561171
  9063.294  9063.300  0.500  1.512098  115.772  25.5217  2.514849
  9064.303  9064.300  0.500  1.513634  116.202  25.577  2.518429
  9065.297  9065.300  0.500  1.513169  116.789  25.7181  2.536903
  9066.302  9066.300  0.500  1.511662  116.809  25.7614  2.546926
  9067.297  9067.300  0.500  1.509965  116.798  25.8027  2.554246
  9068.300  9068.300  0.500  1.508299  116.774  25.8404  2.558534
  9069.306  9069.300  0.500  1.507270  116.749  25.8615  2.559018
  9070.308  9070.300  0.500  1.506009  116.728  25.8895  2.558680
  9071.793  9071.790  0.500  1.503306  116.692  25.9516  2.562566
  9073.818  9073.810  0.500  1.499167  116.646  26.0489  2.575551
  9075.943  9075.920  0.500  1.495166  116.593  26.1416  2.598816
  9078.101  9078.100  0.500  1.490093  116.543  26.2631  2.635206
  9080.380  9080.360  0.500  1.483283  116.189  26.3623  2.673598
  9082.700  9082.690  0.500  1.476390  116.678  26.6563  2.731111
  9085.114  9085.100  0.500  1.470784  116.841  26.8437  2.772125
  9087.589  9087.580  0.500  1.467141  116.796  26.9312  2.794110
  9090.144  9090.140  0.500  1.465244  116.746  26.9709  2.805258
  9092.796  9092.780  0.500  1.464360  116.684  26.9804  2.809597
  9095.504  9095.500  0.500  1.464845  116.614  26.951  2.805633
  9098.299  9098.290  0.500  1.466577  116.545  26.8884  2.797196
  9101.156  9101.150  0.500  1.468197  116.474  26.8287  2.788042
  9104.101  9104.090  0.500  1.469746  115.141  26.4807  2.747184
  9107.134  9107.110  0.500  1.471055  116.281  26.7077  2.763809
  9110.226  9110.210  0.500  1.471788  116.224  26.6751  2.752224
  9113.398  9113.380  0.500  1.472503  116.143  26.6375  2.738360
  9116.638  9116.630  0.500  1.471924  116.072  26.6366  2.730020
  9119.966  9119.950  0.500  1.469788  115.974  26.6709  2.732302
  9123.361  9123.350  0.500  1.466796  115.885  26.7305  2.743640
  9126.837  9126.830  0.500  1.463559  115.786  26.7943  2.764928
  9130.384  9130.380  0.500  1.460488  115.684  26.8528  2.789330
  9134.032  9134.010  0.500  1.457876  115.581  26.8991  2.808768
  9137.718  9137.710  0.500  1.455868  115.466  26.9265  2.819262
  9141.501  9141.490  0.500  1.453509  115.25  26.9396  2.825352
  9145.366  9145.350  0.500  1.451212  114.216  26.7593  2.807529
  9149.292  9149.280  0.500  1.449075  115.271  27.0643  2.846057
  9153.291  9153.290  0.500  1.446649  115.081  27.0851  2.857814
  9157.394  9157.380  0.500  1.444171  111.381  26.2793  2.783641
  9161.556  9161.540  0.500  1.441783  114.975  27.1923  2.891610
  9165.797  9165.780  0.500  1.439935  114.701  27.1775  2.899206
  9170.100  9170.090  0.500  1.438837  114.785  27.2275  2.912032
  9174.483  9174.480  0.500  1.438189  114.659  27.2151  2.912748
  9178.969  9178.950  0.500  1.437301  114.426  27.184  2.909256
  9183.514  9183.490  0.500  1.435936  114.152  27.1559  2.902124
  9188.115  9188.110  0.500  1.434224  114.373  27.2552  2.913780
  9192.814  9192.800  0.500  1.431865  114.203  27.2789  2.922186
  9197.588  9197.570  0.500  1.428891  114.034  27.3197  2.932136
  9202.441  9202.420  0.500  1.426039  113.887  27.3623  2.943587
  9207.367  9207.350  0.500  1.422769  113.74  27.4166  2.961246
  9212.373  9212.350  0.500  1.420067  113.613  27.46  2.980184
  9217.428  9217.420  0.500  1.417668  113.482  27.4943  2.995892
  9222.584  9222.570  0.500  1.415446  113.36  27.5258  3.007391
  9227.808  9227.800  0.500  1.413083  113.212  27.5548  3.013179
  9233.119  9233.110  0.500  1.410772  113.086  27.5879  3.021429
  9238.514  9238.490  0.500  1.408528  112.95  27.6166  3.030699
  9243.966  9243.950  0.500  1.406076  112.806  27.6492  3.043550
  9249.496  9249.480  0.500  1.403557  112.666  27.6845  3.057500
  9255.106  9255.090  0.500  1.401046  112.525  27.7193  3.072528
  9260.782  9260.770  0.500  1.398488  112.368  27.7514  3.087048
  9266.554  9266.540  0.500  1.396191  112.221  27.7791  3.097388
  9272.393  9272.370  0.500  1.393910  112.08  27.8073  3.107417
  9278.295  9278.290  0.500  1.391327  111.963  27.8503  3.116919
  9284.302  9284.280  0.500  1.388699  111.775  27.8766  3.124800
  9290.372  9290.350  0.500  1.386054  111.581  27.9019  3.135088
  9296.510  9296.490  0.500  1.383247  111.396  27.934  3.146559
  9302.738  9302.710  0.500  1.380400  111.36  28.0045  3.164038
  9309.027  9309.000  0.500  1.377191  111.22  28.0592  3.180538
  9315.393  9315.370  0.500  1.374289  111.03  28.0928  3.196979
  9321.838  9321.820  0.500  1.371364  110.823  28.1225  3.212040
  9328.372  9328.350  0.500  1.368568  110.707  28.1716  3.228276
  9334.978  9334.950  0.500  1.365743  110.549  28.2112  3.244506
  9341.644  9341.620  0.500  1.362664  110.348  28.2466  3.256467
  9348.386  9348.370  0.500  1.359632  110.165  28.2855  3.269475
  9355.215  9355.200  0.500  1.356821  109.988  28.3195  3.285540
  9362.129  9362.110  0.500  1.353760  109.804  28.3588  3.301382
  9369.110  9369.090  0.500  1.350521  109.612  28.4011  3.317507
  9376.167  9376.150  0.500  1.347555  109.414  28.434  3.331960
  9383.295  9383.280  0.500  1.344743  109.239  28.4684  3.344053
  9390.510  9390.490  0.500  1.341601  109.059  28.5109  3.358533
  9397.809  9397.780  0.500  1.338503  108.864  28.5481  3.373206
  9405.162  9405.140  0.500  1.335389  108.683  28.5898  3.390053
  9412.592  9412.580  0.500  1.332003  108.483  28.6339  3.405244
  9420.106  9420.090  0.500  1.328688  108.295  28.6793  3.421105
  9427.698  9427.680  0.500  1.325345  108.096  28.7224  3.438891
  9435.367  9435.350  0.500  1.322076  107.866  28.755  3.455756
  9443.104  9443.090  0.500  1.318726  107.688  28.8039  3.475684
  9450.926  9450.910  0.500  1.315590  107.489  28.8411  3.493234
  9458.824  9458.810  0.500  1.312433  107.283  28.8768  3.511875
  9466.801  9466.780  0.500  1.308940  107.084  28.924  3.529814
  9474.849  9474.830  0.500  1.305526  106.881  28.9679  3.547604
  9482.974  9482.950  0.500  1.302304  106.669  29.0038  3.564347
  9491.175  9491.150  0.500  1.298758  106.456  29.0487  3.579827
  9499.438  9499.430  0.500  1.295294  106.244  29.0915  3.596046
  9507.793  9507.780  0.500  1.291764  106.04  29.1383  3.614734
  9516.234  9516.210  0.500  1.288148  105.813  29.1813  3.633879
  9524.737  9524.710  0.500  1.284556  105.606  29.2288  3.654927
  9533.307  9533.290  0.500  1.281135  105.373  29.2645  3.673613
  9541.963  9541.950  0.500  1.277452  105.167  29.3149  3.695575
  9550.714  9550.690  0.500  1.274234  104.94  29.3459  3.713533
  9559.529  9559.500  0.500  1.270606  104.72  29.3909  3.733853
  9568.408  9568.380  0.500  1.266962  104.481  29.4309  3.752494
  9577.363  9577.340  0.500  1.263187  104.272  29.4831  3.771356
  9586.395  9586.380  0.500  1.259341  104.01  29.5222  3.789356
  9590.953  9590.930  0.500  1.257395  104.297  29.6616  3.815247