File: xdidata/Dy/Dy-L3-Dy2Ti2O7.xdi
# XDI/1.0 BlueSky/1.10.0 BMM/2023-1.0-py310-tiled
# Beamline.name: BMM (06BM) -- Beamline for Materials Measurement (NIST)
# Beamline.xray_source: NSLS-II three-pole wiggler
# Beamline.collimation: paraboloid mirror, 5 nm Rh on 30 nm Pt
# Beamline.focusing: not in use
# Beamline.harmonic_rejection: flat mirror, Si stripe, pitch = 7.0 mrad relative to beam
# Beamline.software: Bluesky 1.10.0, Ophyd 1.7.0, DataBroker 2.0.0b13, Python 3.10.8, 2023-1.0-py310-tiled
# Detector.I0: 10 cm N2
# Detector.I1: 25 cm N2
# Detector.I2: 25 cm N2
# Element.symbol: Dy
# Element.edge: L3
# Element.reference: Dy
# Element.reference_material: Dy2O3
# Facility.name: NSLS-II
# Facility.energy: 3.0
# Facility.current: 398.9
# Facility.mode: top-off
# Facility.GUP: 123456
# Facility.SAF: 301027
# Facility.cycle: 2023-2
# Mono.name: Si(111)
# Mono.d_spacing: 3.13519
# Mono.encoder_resolution: 0.0000050 deg/ct
# Mono.angle_offset: 16.0754 deg
# Mono.scan_mode: pseudo channel cut
# Mono.scan_type: step
# Mono.direction: forward in energy
# Sample.name: Dy2Ti2O7
# Sample.prep: Powder in PEG pellet
# Sample.x: 149.848 mm
# Sample.y: 114.690 mm
# Sample.SDD_position: 205.000 mm
# Scan.experimenters: Bruce Ravel
# Scan.edge_energy: 7790.1
# Scan.start_time: 2023-05-08T18:41:04
# Scan.end_time: 2023-05-08T18:47:04
# Scan.transient_id: 75502
# Scan.uid: c42f417d-762a-4568-a2ca-022485f0c13c
# Scan.plot_hint: ln(I0/It)  --  ln($5/$6)
# Column.1: energy eV
# Column.2: requested_energy eV
# Column.3: measurement_time seconds
# Column.4: xmu
# Column.5: I0 nA
# Column.6: It nA
# Column.7: Ir nA
# ///////////
# sample courtesy Martin Stennett, University of Sheffield
# -----------
# energy  requested_energy  measurement_time  xmu  I0  It  Ir
  7590.102  7590.100  0.500  1.882660  142.831  21.7367  3.216460
  7610.121  7610.100  0.500  1.863727  141.844  21.9992  3.299993
  7630.181  7630.100  0.500  1.845741  142.21  22.4562  3.414303
  7650.123  7650.100  0.500  1.827882  142.497  22.907  3.529603
  7670.118  7670.100  0.500  1.810328  142.213  23.2661  3.631682
  7690.116  7690.100  0.500  1.792992  141.963  23.6314  3.736528
  7710.118  7710.100  0.500  1.776175  141.607  23.9719  3.838635
  7730.114  7730.100  0.500  1.760136  141.229  24.2944  3.934463
  7750.206  7750.100  0.500  1.747483  140.85  24.5377  4.008200
  7762.070  7762.100  0.500  1.745244  140.566  24.5431  4.010489
  7766.081  7766.100  0.500  1.746933  140.484  24.4875  3.992335
  7770.085  7770.100  0.500  1.750986  140.412  24.376  3.955590
  7774.087  7774.100  0.500  1.759490  140.309  24.1517  3.884018
  7778.087  7778.100  0.500  1.777907  140.217  23.6955  3.742017
  7780.580  7780.600  0.500  1.800129  140.168  23.1666  3.581326
  7781.575  7781.600  0.500  1.813719  140.147  22.8505  3.486584
  7782.576  7782.600  0.500  1.831792  140.136  22.4394  3.365718
  7783.579  7783.600  0.500  1.857718  140.122  21.863  3.199950
  7784.588  7784.600  0.500  1.891631  140.105  21.1314  2.996220
  7785.586  7785.600  0.500  1.930588  140.07  20.3189  2.779089
  7786.582  7786.600  0.500  1.972103  140.04  19.4885  2.564365
  7787.584  7787.600  0.500  2.026506  140.02  18.454  2.311808
  7788.586  7788.600  0.500  2.108702  139.991  16.9942  1.977481
  7789.596  7789.600  0.500  2.237350  139.976  14.9412  1.553813
  7790.594  7790.600  0.500  2.436671  139.964  12.24  1.075736
  7791.591  7791.600  0.500  2.733376  139.922  9.094837  0.626330
  7792.587  7792.600  0.500  3.074993  139.928  6.463246  0.336782
  7793.590  7793.600  0.500  3.377289  139.916  4.776710  0.194163
  7794.599  7794.600  0.500  3.561381  139.89  3.972821  0.138806
  7795.600  7795.600  0.500  3.645292  139.866  3.652437  0.119430
  7796.594  7796.600  0.500  3.639021  139.848  3.674929  0.120435
  7797.588  7797.600  0.500  3.521760  139.809  4.130995  0.148438
  7798.595  7798.600  0.500  3.317564  139.794  5.066283  0.214039
  7799.603  7799.600  0.500  3.089171  139.782  6.365641  0.322725
  7800.605  7800.600  0.500  2.897829  139.755  7.706485  0.456337
  7801.601  7801.600  0.500  2.752289  139.744  8.913119  0.593884
  7802.596  7802.600  0.500  2.657141  139.707  9.800257  0.706285
  7803.597  7803.600  0.500  2.594457  139.671  10.4315  0.792221
  7804.608  7804.600  0.500  2.550004  139.657  10.9046  0.860129
  7805.607  7805.600  0.500  2.518647  139.625  11.2494  0.910749
  7806.596  7806.600  0.500  2.496428  139.61  11.5009  0.949493
  7807.595  7807.600  0.500  2.482796  139.609  11.6586  0.973287
  7808.594  7808.600  0.500  2.477293  139.577  11.7203  0.983699
  7809.599  7809.600  0.500  2.478668  139.504  11.6981  0.980384
  7810.592  7810.600  0.500  2.485008  139.504  11.6242  0.968350
  7811.592  7811.600  0.500  2.493028  139.499  11.5309  0.954095
  7812.600  7812.600  0.500  2.497937  139.426  11.4684  0.944811
  7813.604  7813.600  0.500  2.497537  139.431  11.4734  0.944984
  7814.595  7814.600  0.500  2.492567  139.397  11.5278  0.953964
  7816.092  7816.090  0.500  2.479057  139.372  11.6825  0.977851
  7818.116  7818.110  0.500  2.463109  139.31  11.865  1.007475
  7820.231  7820.220  0.500  2.469810  139.25  11.7807  0.994446
  7822.412  7822.400  0.500  2.499396  139.215  11.4344  0.940910
  7824.668  7824.660  0.500  2.539883  139.151  10.9756  0.872187
  7826.998  7826.990  0.500  2.588429  139.091  10.451  0.797188
  7829.408  7829.400  0.500  2.637626  139.005  9.943170  0.727184
  7831.890  7831.880  0.500  2.661741  137.796  9.621801  0.689030
  7834.445  7834.440  0.500  2.648995  138.803  9.816477  0.710551
  7837.088  7837.080  0.500  2.613234  138.739  10.1692  0.757882
  7839.809  7839.800  0.500  2.575545  137.584  10.4718  0.805223
  7842.598  7842.590  0.500  2.547767  138.549  10.8423  0.853120
  7845.454  7845.450  0.500  2.527834  137.794  11.0003  0.880056
  7848.402  7848.390  0.500  2.511893  138.331  11.2206  0.910181
  7851.419  7851.410  0.500  2.499872  138.276  11.3518  0.929915
  7854.519  7854.510  0.500  2.490454  137.146  11.3656  0.938956
  7857.695  7857.680  0.500  2.483257  138.025  11.5211  0.956929
  7860.946  7860.930  0.500  2.480868  137.939  11.5414  0.960413
  7864.255  7864.250  0.500  2.485263  137.893  11.487  0.952023
  7867.654  7867.650  0.500  2.496053  137.778  11.3542  0.931976
  7871.138  7871.130  0.500  2.510113  137.683  11.188  0.906990
  7874.694  7874.680  0.500  2.521531  137.573  11.0522  0.886950
  7878.320  7878.310  0.500  2.527493  137.494  10.9801  0.876146
  7882.023  7882.010  0.500  2.527098  137.371  10.9746  0.875739
  7885.794  7885.790  0.500  2.522895  137.276  11.0132  0.881560
  7889.654  7889.650  0.500  2.519082  137.188  11.0483  0.887104
  7893.592  7893.580  0.500  2.515089  137.052  11.0815  0.892379
  7897.601  7897.590  0.500  2.510282  136.937  11.1255  0.899253
  7901.694  7901.680  0.500  2.506691  136.792  11.1537  0.903836
  7905.850  7905.840  0.500  2.504099  136.694  11.1746  0.906673
  7910.096  7910.080  0.500  2.498785  136.576  11.2244  0.914915
  7914.409  7914.390  0.500  2.485672  136.982  11.4065  0.939599
  7918.806  7918.780  0.500  2.468082  136.86  11.5985  0.969564
  7923.268  7923.250  0.500  2.451369  136.744  11.784  0.998405
  7927.808  7927.790  0.500  2.444202  135.803  11.7871  1.004895
  7932.428  7932.410  0.500  2.447985  136.425  11.7964  1.001894
  7937.119  7937.100  0.500  2.452195  136.137  11.722  0.991862
  7941.891  7941.870  0.500  2.454970  136.334  11.7064  0.987214
  7946.736  7946.720  0.500  2.461615  136.168  11.6147  0.973627
  7951.663  7951.650  0.500  2.470190  135.676  11.4739  0.953862
  7956.661  7956.650  0.500  2.471841  135.832  11.4682  0.952004
  7961.706  7961.720  0.500  2.462077  135.662  11.5662  0.967227
  7966.859  7966.870  0.500  2.446503  135.501  11.7338  0.994209
  7972.107  7972.100  0.500  2.435289  135.284  11.8471  1.012896
  7977.426  7977.410  0.500  2.428736  134.918  11.8928  1.022213
  7982.798  7982.790  0.500  2.426845  134.704  11.8964  1.023703
  7988.257  7988.250  0.500  2.426286  134.573  11.8915  1.022947
  7993.795  7993.780  0.500  2.425845  134.423  11.8835  1.021942
  7999.406  7999.390  0.500  2.423379  134.255  11.8979  1.024766
  8005.086  8005.070  0.500  2.415110  134.168  11.9889  1.038967
  8010.848  8010.840  0.500  2.403670  134.2  12.1297  1.061292
  8016.682  8016.670  0.500  2.394204  134.136  12.2393  1.078967
  8022.605  8022.590  0.500  2.388855  133.985  12.291  1.088257
  8028.591  8028.580  0.500  2.386458  133.835  12.3068  1.090398
  8034.659  8034.650  0.500  2.385920  133.669  12.2981  1.089641
  8040.811  8040.790  0.500  2.384578  133.457  12.2951  1.090801
  8047.023  8047.010  0.500  2.383294  133.264  12.2931  1.090589
  8053.319  8053.300  0.500  2.379826  133.029  12.3141  1.094708
  8059.687  8059.670  0.500  2.373777  132.838  12.371  1.104476
  8066.132  8066.120  0.500  2.366863  132.724  12.4461  1.116880
  8072.671  8072.650  0.500  2.358709  132.632  12.5394  1.132861
  8079.268  8079.250  0.500  2.349037  126.713  12.0962  1.100883
  8085.933  8085.920  0.500  2.342130  132.21  12.7084  1.163254
  8092.685  8092.670  0.500  2.337725  131.974  12.7417  1.169303
  8099.513  8099.500  0.500  2.334743  131.884  12.771  1.174277
  8106.417  8106.410  0.500  2.330462  131.649  12.803  1.180972
  8113.405  8113.390  0.500  2.323614  131.413  12.8679  1.193460
  8120.466  8120.450  0.500  2.315427  131.221  12.9546  1.208561
  8127.591  8127.580  0.500  2.308579  130.964  13.0182  1.221064
  8134.806  8134.790  0.500  2.303140  130.739  13.0667  1.230637
  8142.088  8142.080  0.500  2.298481  130.49  13.1026  1.238496
  8149.449  8149.440  0.500  2.292401  130.229  13.1562  1.249524
  8156.889  8156.880  0.500  2.285735  129.97  13.2179  1.260669
  8164.400  8164.390  0.500  2.281352  129.702  13.2485  1.267919
  8171.991  8171.980  0.500  2.276978  129.436  13.2793  1.274933
  8179.659  8179.650  0.500  2.271210  129.131  13.3247  1.283713
  8187.406  8187.390  0.500  2.264278  128.898  13.3932  1.297296
  8195.220  8195.210  0.500  2.256997  128.624  13.4623  1.311086
  8203.121  8203.110  0.500  2.249143  128.344  13.539  1.326893
  8211.090  8211.080  0.500  2.241647  128.065  13.6112  1.341805
  8219.141  8219.130  0.500  2.233577  127.75  13.6877  1.357731
  8227.264  8227.250  0.500  2.225067  127.464  13.7738  1.374441
  8235.455  8235.450  0.500  2.218510  127.152  13.8305  1.387089
  8243.742  8243.730  0.500  2.214141  126.86  13.8591  1.393988
  8252.099  8252.080  0.500  2.209648  126.528  13.8851  1.400872
  8260.520  8260.510  0.500  2.203531  126.231  13.9375  1.412373
  8269.018  8269.010  0.500  2.196062  125.899  14.005  1.427911
  8277.603  8277.590  0.500  2.188142  125.252  14.0438  1.441111
  8286.266  8286.250  0.500  2.180204  125.202  14.1502  1.459923
  8295.004  8294.990  0.500  2.172248  124.847  14.2228  1.476236
  8303.823  8303.800  0.500  2.163975  124.456  14.296  1.493194
  8312.730  8312.680  0.500  2.155975  123.883  14.3445  1.507099
  8321.700  8321.640  0.500  2.149490  122.136  14.2342  1.502637
  8330.738  8330.680  0.500  2.144861  123.295  14.4358  1.529126
  8335.270  8335.230  0.500  2.142698  122.947  14.4263  1.529645