File: xdidata/Dy/Dy-L1-DysprosiumOxide.xdi
# XDI/1.0 BlueSky/1.10.0 BMM/2023-1.0-py310-tiled
# Beamline.name: BMM (06BM) -- Beamline for Materials Measurement (NIST)
# Beamline.xray_source: NSLS-II three-pole wiggler
# Beamline.collimation: paraboloid mirror, 5 nm Rh on 30 nm Pt
# Beamline.focusing: not in use
# Beamline.harmonic_rejection: flat mirror, Pt stripe, pitch = 7.0 mrad relative to beam
# Beamline.software: Bluesky 1.10.0, Ophyd 1.7.0, DataBroker 2.0.0b13, Python 3.10.8, 2023-1.0-py310-tiled
# Detector.I0: 10 cm N2
# Detector.I1: 25 cm N2
# Detector.I2: 25 cm N2
# Element.symbol: Dy
# Element.edge: L1
# Element.reference: Dy
# Element.reference_material: Dy2O3
# Facility.name: NSLS-II
# Facility.energy: 3.0
# Facility.current: 400.8
# Facility.mode: top-off
# Facility.GUP: 301027
# Facility.SAF: 310583
# Facility.cycle: 2023-2
# Mono.name: Si(111)
# Mono.d_spacing: 3.13519
# Mono.encoder_resolution: 0.0000050 deg/ct
# Mono.angle_offset: 16.0754 deg
# Mono.scan_mode: pseudo channel cut
# Mono.scan_type: step
# Mono.direction: forward in energy
# Sample.name: Dy2O3
# Sample.prep: PEG pellet
# Sample.x: 109.138 mm
# Sample.y: 153.150 mm
# Sample.SDD_position: 205.000 mm
# Scan.experimenters: Bruce Ravel
# Scan.edge_energy: 9045.8
# Scan.start_time: 2023-05-28T16:11:12
# Scan.end_time: 2023-05-28T16:19:16
# Scan.transient_id: 78826
# Scan.uid: f60d82a3-a0e1-4be0-8544-d5ebbde5450b
# Scan.plot_hint: ln(It/Ir)  --  ln($6/$7)
# Column.1: energy eV
# Column.2: requested_energy eV
# Column.3: measurement_time seconds
# Column.4: xmu
# Column.5: I0 nA
# Column.6: It nA
# Column.7: Ir nA
# ///////////
# sample courtesy Martin Stennett, University of Sheffield
# -----------
# energy  requested_energy  measurement_time  xmu  I0  It  Ir
  8845.808  8845.800  0.500  2.426077  121.56  166.997  14.7597
  8875.799  8875.800  0.500  2.405802  121.043  166.877  15.0511
  8905.849  8905.800  0.500  2.390770  120.442  166.642  15.2576
  8935.824  8935.800  0.500  2.374829  119.886  166.452  15.4851
  8965.826  8965.800  0.500  2.361196  119.12  165.982  15.6533
  8995.820  8995.800  0.500  2.345073  118.393  165.517  15.8632
  9017.790  9017.800  0.500  2.333475  118.409  165.956  16.0908
  9023.775  9023.800  0.500  2.331022  118.348  165.955  16.1302
  9029.779  9029.800  0.500  2.329556  118.219  165.866  16.1452
  9035.784  9035.800  0.500  2.328892  118.098  165.842  16.1536
  9036.670  9036.700  0.500  2.328963  118.079  165.819  16.1502
  9037.570  9037.600  0.500  2.329074  118.039  165.792  16.1458
  9038.478  9038.500  0.500  2.329337  118.016  165.782  16.1406
  9039.371  9039.400  0.500  2.329551  118.001  165.777  16.1366
  9040.272  9040.300  0.500  2.329819  117.968  165.725  16.1273
  9041.177  9041.200  0.500  2.330329  117.651  165.294  16.0771
  9042.089  9042.100  0.500  2.330874  116.672  163.933  15.936
  9042.987  9043.000  0.500  2.331559  117.079  164.55  15.9851
  9043.899  9043.900  0.500  2.332255  117.724  165.447  16.061
  9044.797  9044.800  0.500  2.333387  117.772  165.548  16.0526
  9045.685  9045.700  0.500  2.334800  117.759  165.525  16.0278
  9046.584  9046.600  0.500  2.336864  117.757  165.558  15.9979
  9047.493  9047.500  0.500  2.339786  117.719  165.494  15.945
  9048.396  9048.400  0.500  2.344359  117.701  165.503  15.8732
  9049.306  9049.300  0.500  2.350146  117.683  165.479  15.7793
  9050.202  9050.200  0.500  2.356618  117.681  165.526  15.682
  9051.094  9051.100  0.500  2.363133  117.653  165.475  15.5753
  9052.005  9052.000  0.500  2.369634  117.623  165.494  15.4762
  9052.901  9052.900  0.500  2.375689  117.606  165.457  15.3793
  9053.805  9053.800  0.500  2.381709  117.599  165.44  15.2854
  9054.684  9054.700  0.500  2.387615  117.555  165.415  15.1931
  9055.602  9055.600  0.500  2.394103  117.543  165.414  15.0948
  9056.492  9056.500  0.500  2.401271  117.517  165.402  14.9859
  9057.407  9057.400  0.500  2.409033  117.493  165.39  14.8689
  9058.294  9058.300  0.500  2.417476  117.463  165.382  14.7432
  9059.192  9059.200  0.500  2.427301  117.437  165.32  14.5936
  9060.104  9060.100  0.500  2.438290  117.434  165.315  14.4337
  9060.999  9061.000  0.500  2.449494  117.381  165.267  14.2687
  9061.904  9061.900  0.500  2.459728  117.354  165.237  14.1209
  9062.785  9062.800  0.500  2.467925  117.168  164.996  13.9851
  9063.694  9063.700  0.500  2.472894  116.207  163.675  13.8044
  9064.600  9064.600  0.500  2.473961  116.357  163.893  13.808
  9065.499  9065.500  0.500  2.472949  117.161  165.046  13.9193
  9066.398  9066.400  0.500  2.470848  117.217  165.153  13.9576
  9067.287  9067.300  0.500  2.469111  117.287  165.283  13.9929
  9068.197  9068.200  0.500  2.468442  117.576  165.696  14.0372
  9069.104  9069.100  0.500  2.468295  117.567  165.702  14.0398
  9070.000  9070.000  0.500  2.469197  117.542  165.684  14.0256
  9070.790  9070.800  0.500  2.469837  117.54  165.693  14.0174
  9073.843  9073.810  0.500  2.470000  117.448  165.621  14.009
  9077.082  9077.000  0.500  2.461478  117.375  165.593  14.1265
  9080.345  9080.360  0.500  2.445921  117.221  165.397  14.331
  9083.869  9083.880  0.500  2.430223  117.123  165.329  14.5518
  9087.571  9087.580  0.500  2.420498  117.112  165.401  14.7004
  9091.440  9091.450  0.500  2.416625  117.031  165.342  14.7522
  9095.483  9095.500  0.500  2.415970  116.943  165.296  14.7578
  9099.704  9099.710  0.500  2.416718  116.878  165.283  14.7456
  9104.080  9104.090  0.500  2.418675  115.844  163.895  14.5932
  9108.642  9108.650  0.500  2.422272  116.653  165.103  14.6479
  9113.373  9113.380  0.500  2.427436  116.573  165.077  14.5702
  9118.275  9118.280  0.500  2.431375  116.46  165.014  14.5074
  9123.335  9123.350  0.500  2.429622  116.363  164.952  14.5273
  9128.589  9128.590  0.500  2.421225  116.251  164.884  14.6438
  9134.021  9134.010  0.500  2.411912  116.137  164.838  14.7767
  9139.600  9139.590  0.500  2.407505  115.979  164.723  14.8316
  9145.355  9145.350  0.500  2.405601  112.694  160.141  14.4465
  9151.270  9151.280  0.500  2.402246  115.791  164.624  14.9008
  9157.394  9157.380  0.500  2.396503  113.786  161.868  14.7358
  9163.658  9163.650  0.500  2.390269  115.603  164.577  15.0761
  9170.104  9170.090  0.500  2.385792  114.638  163.322  15.0283
  9176.711  9176.700  0.500  2.384553  115.376  164.476  15.1532
  9183.507  9183.490  0.500  2.385309  113.272  161.619  14.8788
  9190.466  9190.450  0.500  2.384243  115.136  164.369  15.148
  9197.578  9197.570  0.500  2.381008  114.926  164.217  15.1831
  9204.876  9204.870  0.500  2.376930  114.739  164.068  15.2312
  9212.351  9212.350  0.500  2.369667  114.59  163.971  15.3333
  9220.003  9219.990  0.500  2.363034  114.441  163.859  15.4248
  9227.815  9227.800  0.500  2.360627  114.256  163.763  15.4529
  9235.788  9235.790  0.500  2.358059  114.105  163.627  15.4798
  9243.970  9243.950  0.500  2.353484  113.935  163.566  15.5449
  9252.282  9252.270  0.500  2.348322  113.753  163.464  15.6156
  9260.786  9260.770  0.500  2.342473  113.576  163.322  15.6936
  9269.462  9269.450  0.500  2.338418  113.397  163.189  15.7445
  9278.306  9278.290  0.500  2.335507  113.251  163.098  15.7816
  9287.313  9287.300  0.500  2.332466  113.029  162.946  15.8149
  9296.502  9296.490  0.500  2.328002  112.807  162.761  15.8677
  9305.867  9305.850  0.500  2.323457  112.599  162.61  15.9251
  9315.385  9315.370  0.500  2.317421  112.495  162.619  16.0224
  9325.089  9325.070  0.500  2.311417  111.719  161.67  16.0248
  9334.971  9334.950  0.500  2.305865  112.083  162.362  16.1831
  9345.006  9344.990  0.500  2.301597  111.859  162.167  16.2327
  9355.230  9355.200  0.500  2.296414  111.99  162.533  16.3539
  9365.612  9365.590  0.500  2.290822  111.765  162.389  16.431
  9376.171  9376.150  0.500  2.285690  111.536  162.209  16.4973
  9386.901  9386.880  0.500  2.281251  111.311  162.04  16.5534
  9397.821  9397.780  0.500  2.276377  111.091  161.894  16.6193
  9408.851  9408.850  0.500  2.270987  110.845  161.714  16.6905
  9420.106  9420.090  0.500  2.265808  110.594  161.519  16.757
  9431.531  9431.510  0.500  2.259933  110.353  161.331  16.836
  9443.104  9443.090  0.500  2.253389  110.091  161.116  16.9241
  9454.875  9454.850  0.500  2.247169  109.847  160.931  17.0101
  9466.797  9466.780  0.500  2.241293  109.574  160.714  17.0873
  9478.896  9478.880  0.500  2.235443  109.309  160.494  17.164
  9491.172  9491.150  0.500  2.230526  109.046  160.298  17.2275
  9503.608  9503.590  0.500  2.225280  108.763  160.049  17.2913
  9516.234  9516.210  0.500  2.218945  108.495  159.821  17.3763
  9529.008  9528.990  0.500  2.212591  108.212  159.615  17.4645
  9541.967  9541.950  0.500  2.205974  107.92  159.358  17.5522
  9555.108  9555.080  0.500  2.199684  107.621  159.111  17.6355
  9568.396  9568.380  0.500  2.193666  107.315  158.822  17.7098
  9581.857  9581.850  0.500  2.188032  107.015  158.591  17.7839
  9595.508  9595.500  0.500  2.181481  106.699  158.291  17.867
  9609.314  9609.310  0.500  2.174280  106.391  158.052  17.9689
  9623.305  9623.300  0.500  2.167489  106.054  157.726  18.054
  9637.471  9637.460  0.500  2.161122  105.712  157.384  18.13
  9651.807  9651.790  0.500  2.155073  105.369  157.066  18.2031
  9666.305  9666.290  0.500  2.149029  105.017  156.742  18.2757
  9680.980  9680.960  0.500  2.142256  104.686  156.424  18.3625
  9695.823  9695.800  0.500  2.134704  104.333  156.092  18.4625
  9710.843  9710.820  0.500  2.127536  102.557  153.617  18.3005
  9726.021  9726.000  0.500  2.120761  103.656  155.479  18.6482
  9741.379  9741.360  0.500  2.114201  103.305  155.162  18.7327
  9756.909  9756.890  0.500  2.107792  102.952  154.802  18.8093
  9772.619  9772.590  0.500  2.100992  102.434  154.236  18.8684
  9788.479  9788.460  0.500  2.093240  102.223  154.114  19.0002
  9804.546  9804.510  0.500  2.085896  101.628  153.399  19.0515
  9820.763  9820.720  0.500  2.078718  101.163  152.915  19.1283
  9837.143  9837.110  0.500  2.071706  100.95  152.78  19.2458
  9853.706  9853.670  0.500  2.064940  100.729  152.64  19.3587
  9870.439  9870.400  0.500  2.057592  100.333  152.239  19.4503
  9887.335  9887.300  0.500  2.050159  99.882  151.735  19.5305
  9898.699  9898.660  0.500  2.045193  99.6488  151.524  19.6005