File: xdidata/Dy/Dy-L1-DyScO3.xdi
# XDI/1.0 BlueSky/1.10.0 BMM/2023-1.0-py310-tiled
# Beamline.name: BMM (06BM) -- Beamline for Materials Measurement (NIST)
# Beamline.xray_source: NSLS-II three-pole wiggler
# Beamline.collimation: paraboloid mirror, 5 nm Rh on 30 nm Pt
# Beamline.focusing: not in use
# Beamline.harmonic_rejection: flat mirror, Pt stripe, pitch = 7.0 mrad relative to beam
# Beamline.software: Bluesky 1.10.0, Ophyd 1.7.0, DataBroker 2.0.0b13, Python 3.10.8, 2023-1.0-py310-tiled
# Detector.I0: 10 cm N2
# Detector.I1: 25 cm N2
# Detector.I2: 25 cm N2
# Element.symbol: Dy
# Element.edge: L1
# Element.reference: Dy
# Element.reference_material: Dy2O3
# Facility.name: NSLS-II
# Facility.energy: 3.0
# Facility.current: 400.5
# Facility.mode: top-off
# Facility.GUP: 123456
# Facility.SAF: 301027
# Facility.cycle: 2023-2
# Mono.name: Si(111)
# Mono.d_spacing: 3.13519
# Mono.encoder_resolution: 0.0000050 deg/ct
# Mono.angle_offset: 16.0754 deg
# Mono.scan_mode: pseudo channel cut
# Mono.scan_type: step
# Mono.direction: forward in energy
# Sample.name: DyScO3
# Sample.prep: powder on tape
# Sample.x: 149.848 mm
# Sample.y: 114.690 mm
# Sample.SDD_position: 205.000 mm
# Scan.experimenters: Bruce Ravel
# Scan.edge_energy: 9045.8
# Scan.start_time: 2023-05-08T22:21:22
# Scan.end_time: 2023-05-08T22:27:11
# Scan.transient_id: 75671
# Scan.uid: ff9fd2cd-21e4-40a2-96a1-0b5ddaa988f7
# Scan.plot_hint: ln(I0/It)  --  ln($5/$6)
# Column.1: energy eV
# Column.2: requested_energy eV
# Column.3: measurement_time seconds
# Column.4: xmu
# Column.5: I0 nA
# Column.6: It nA
# Column.7: Ir nA
# ///////////
# sample courtesy Igor Levin, NIST
# -----------
# energy  requested_energy  measurement_time  xmu  I0  It  Ir
  8845.805  8845.800  0.500  1.155781  122.102  38.4392  3.978937
  8865.849  8865.800  0.500  1.146760  121.671  38.6505  4.050536
  8885.868  8885.800  0.500  1.135348  121.259  38.9617  4.126566
  8905.826  8905.800  0.500  1.125673  120.758  39.178  4.188354
  8925.855  8925.800  0.500  1.117216  120.441  39.4072  4.255427
  8945.819  8945.800  0.500  1.106928  119.981  39.6626  4.320478
  8965.816  8965.800  0.500  1.098090  119.235  39.7657  4.364944
  8985.825  8985.800  0.500  1.090181  118.982  39.9966  4.431648
  9005.827  9005.800  0.500  1.080743  118.555  40.2308  4.501976
  9017.801  9017.800  0.500  1.075728  118.23  40.3223  4.538516
  9021.791  9021.800  0.500  1.073873  117.684  40.2106  4.531096
  9025.802  9025.800  0.500  1.072674  118.145  40.4165  4.560791
  9029.789  9029.800  0.500  1.071441  118.047  40.4329  4.565318
  9033.762  9033.800  0.500  1.070702  117.927  40.4217  4.564226
  9036.286  9036.300  0.500  1.070691  117.848  40.395  4.561849
  9037.278  9037.300  0.500  1.070668  117.814  40.3843  4.559857
  9038.277  9038.300  0.500  1.070903  117.783  40.364  4.556193
  9039.280  9039.300  0.500  1.071078  117.73  40.3389  4.550970
  9040.279  9040.300  0.500  1.071626  117.639  40.2855  4.543356
  9041.283  9041.300  0.500  1.071997  116.621  39.922  4.499387
  9042.283  9042.300  0.500  1.072590  116.637  39.9041  4.493613
  9043.293  9043.300  0.500  1.073587  117.508  40.162  4.520003
  9044.287  9044.300  0.500  1.074668  117.545  40.1311  4.510657
  9045.277  9045.300  0.500  1.076133  117.531  40.0677  4.495712
  9046.288  9046.300  0.500  1.078449  117.501  39.9649  4.473035
  9047.285  9047.300  0.500  1.082106  117.481  39.8119  4.440134
  9048.294  9048.300  0.500  1.087442  117.443  39.5875  4.390590
  9049.295  9049.300  0.500  1.095288  117.412  39.2675  4.323962
  9050.286  9050.300  0.500  1.104171  117.381  38.9101  4.253991
  9051.292  9051.300  0.500  1.113294  117.351  38.547  4.183738
  9052.291  9052.300  0.500  1.121091  117.319  38.2372  4.123065
  9053.286  9053.300  0.500  1.127397  117.284  37.9855  4.067483
  9054.292  9054.300  0.500  1.134448  117.247  37.7065  4.010679
  9055.291  9055.300  0.500  1.142768  117.212  37.3831  3.947930
  9056.302  9056.300  0.500  1.153907  117.176  36.9577  3.871400
  9057.301  9057.300  0.500  1.167546  117.135  36.4442  3.784297
  9058.298  9058.300  0.500  1.183308  117.123  35.8706  3.687132
  9059.298  9059.300  0.500  1.198634  117.082  35.3126  3.587465
  9060.284  9060.300  0.500  1.209580  117.044  34.917  3.502140
  9061.292  9061.300  0.500  1.216019  116.998  34.679  3.438429
  9062.304  9062.300  0.500  1.219185  116.818  34.5164  3.390206
  9063.308  9063.300  0.500  1.220302  115.793  34.1754  3.340042
  9064.310  9064.300  0.500  1.219355  116.154  34.3144  3.349828
  9065.294  9065.300  0.500  1.217362  116.764  34.5632  3.380165
  9066.295  9066.300  0.500  1.215219  116.78  34.6423  3.395229
  9067.294  9067.300  0.500  1.213367  116.762  34.7012  3.406085
  9068.303  9068.300  0.500  1.212147  116.731  34.7343  3.410285
  9069.302  9069.300  0.500  1.211636  116.706  34.7445  3.408301
  9070.301  9070.300  0.500  1.211641  116.674  34.7348  3.403709
  9071.801  9071.790  0.500  1.211093  116.642  34.7442  3.402024
  9073.807  9073.810  0.500  1.206543  116.582  34.8849  3.421263
  9075.925  9075.920  0.500  1.199117  116.515  35.1246  3.461625
  9078.111  9078.100  0.500  1.192668  116.462  35.3357  3.515245
  9080.362  9080.360  0.500  1.188318  116.147  35.3939  3.559632
  9082.700  9082.690  0.500  1.184267  116.01  35.4955  3.606298
  9085.114  9085.100  0.500  1.178818  116.205  35.7495  3.661670
  9087.582  9087.580  0.500  1.173465  116.155  35.926  3.698404
  9090.147  9090.140  0.500  1.169029  116.085  36.0639  3.721532
  9092.782  9092.780  0.500  1.166914  116.021  36.1202  3.731078
  9095.501  9095.500  0.500  1.167047  115.951  36.0938  3.727830
  9098.292  9098.290  0.500  1.167985  115.872  36.0353  3.719427
  9101.153  9101.150  0.500  1.169412  115.792  35.9593  3.707846
  9104.094  9104.090  0.500  1.171008  114.474  35.4932  3.653179
  9107.120  9107.110  0.500  1.172579  115.584  35.781  3.672527
  9110.222  9110.210  0.500  1.173356  115.525  35.7351  3.657025
  9113.402  9113.380  0.500  1.174103  115.893  35.8221  3.651650
  9116.627  9116.630  0.500  1.174840  115.798  35.7665  3.635678
  9119.955  9119.950  0.500  1.175401  115.728  35.7246  3.629060
  9123.357  9123.350  0.500  1.175274  115.621  35.6963  3.634172
  9126.837  9126.830  0.500  1.171367  115.52  35.8045  3.663184
  9130.395  9130.380  0.500  1.164723  115.419  36.0118  3.710171
  9134.014  9134.010  0.500  1.159365  115.308  36.1703  3.745712
  9137.721  9137.710  0.500  1.155731  115.177  36.2608  3.766181
  9141.497  9141.490  0.500  1.153396  114.959  36.2767  3.772908
  9145.359  9145.350  0.500  1.152130  113.754  35.942  3.740512
  9149.296  9149.280  0.500  1.151807  114.991  36.3445  3.790393
  9153.295  9153.290  0.500  1.151059  114.772  36.3025  3.799530
  9157.398  9157.380  0.500  1.149673  111.247  35.2364  3.702749
  9161.559  9161.540  0.500  1.147539  114.693  36.4055  3.839162
  9165.793  9165.780  0.500  1.144250  114.42  36.4386  3.856849
  9170.104  9170.090  0.500  1.141230  114.467  36.5639  3.878734
  9174.498  9174.480  0.500  1.137878  114.364  36.6534  3.891730
  9178.977  9178.950  0.500  1.134630  114.128  36.6969  3.895033
  9183.492  9183.490  0.500  1.132531  113.672  36.627  3.883268
  9188.118  9188.110  0.500  1.132297  114.077  36.7661  3.899146
  9192.811  9192.800  0.500  1.132230  113.91  36.7148  3.901673
  9197.578  9197.570  0.500  1.130569  113.746  36.7227  3.909299
  9202.433  9202.420  0.500  1.128312  113.585  36.7538  3.921750
  9207.371  9207.350  0.500  1.126569  113.442  36.7715  3.938992
  9212.358  9212.350  0.500  1.124089  113.329  36.8262  3.963198
  9217.420  9217.420  0.500  1.120319  113.184  36.9178  3.990899
  9222.576  9222.570  0.500  1.116020  113.052  37.0337  4.013199
  9227.812  9227.800  0.500  1.111873  112.918  37.1434  4.029048
  9233.126  9233.110  0.500  1.109043  112.77  37.1999  4.040185
  9238.514  9238.490  0.500  1.107144  112.642  37.2282  4.052927
  9243.963  9243.950  0.500  1.104738  112.506  37.2729  4.070328
  9249.489  9249.480  0.500  1.102149  112.38  37.3277  4.088764
  9255.102  9255.090  0.500  1.100047  112.233  37.3573  4.106859
  9260.782  9260.770  0.500  1.097990  112.072  37.3806  4.124248
  9266.562  9266.540  0.500  1.095843  111.933  37.4145  4.137909
  9272.389  9272.370  0.500  1.093541  111.777  37.4484  4.151036
  9278.317  9278.290  0.500  1.090775  111.672  37.5169  4.164234
  9284.294  9284.280  0.500  1.087405  111.495  37.5837  4.178474
  9290.364  9290.350  0.500  1.083818  111.32  37.6598  4.197374
  9296.491  9296.490  0.500  1.081018  111.125  37.6992  4.212554
  9302.723  9302.710  0.500  1.078530  111.101  37.7848  4.234814
  9309.020  9309.000  0.500  1.075702  110.941  37.8375  4.254858
  9315.389  9315.370  0.500  1.072727  110.773  37.8925  4.277138
  9321.831  9321.820  0.500  1.069364  110.549  37.9436  4.298802
  9328.368  9328.350  0.500  1.066162  110.453  38.0321  4.324554
  9334.975  9334.950  0.500  1.062750  110.288  38.1048  4.346797
  9341.651  9341.620  0.500  1.059165  110.105  38.1783  4.366630
  9348.398  9348.370  0.500  1.056099  109.929  38.2343  4.386416
  9355.218  9355.200  0.500  1.053098  109.774  38.2953  4.406557
  9362.129  9362.110  0.500  1.050204  109.604  38.3466  4.429161
  9369.110  9369.090  0.500  1.047156  109.43  38.4027  4.451049
  9376.174  9376.150  0.500  1.044007  109.253  38.4616  4.470732
  9383.310  9383.280  0.500  1.040999  109.09  38.52  4.489783
  9390.507  9390.490  0.500  1.037661  108.944  38.597  4.511369
  9397.794  9397.780  0.500  1.033968  108.786  38.6834  4.536105
  9405.158  9405.140  0.500  1.030620  108.615  38.7522  4.558362
  9412.603  9412.580  0.500  1.027362  108.454  38.8213  4.580480
  9420.106  9420.090  0.500  1.024198  108.292  38.886  4.603217
  9427.694  9427.680  0.500  1.020719  108.12  38.9593  4.627617
  9435.364  9435.350  0.500  1.017464  107.946  39.0234  4.654036
  9443.115  9443.090  0.500  1.013953  107.781  39.1008  4.682229
  9450.930  9450.910  0.500  1.010141  107.601  39.1847  4.711804
  9458.828  9458.810  0.500  1.006370  107.412  39.2637  4.738493
  9466.801  9466.780  0.500  1.002462  107.238  39.3538  4.765818
  9474.853  9474.830  0.500  0.998750  107.059  39.4342  4.792991
  9482.966  9482.950  0.500  0.995157  106.866  39.5047  4.818840
  9491.164  9491.150  0.500  0.991603  106.662  39.5698  4.839136
  9499.446  9499.430  0.500  0.988314  106.456  39.6233  4.861322
  9507.786  9507.780  0.500  0.984787  106.256  39.6887  4.886803
  9516.222  9516.210  0.500  0.981366  106.06  39.7512  4.913132
  9524.725  9524.710  0.500  0.977461  105.846  39.826  4.942434
  9533.307  9533.290  0.500  0.973661  105.633  39.8973  4.971738
  9541.955  9541.950  0.500  0.969665  105.429  39.9798  5.002659
  9550.710  9550.690  0.500  0.965917  105.214  40.0479  5.030722
  9559.525  9559.500  0.500  0.962053  104.996  40.1196  5.059519
  9568.392  9568.380  0.500  0.958384  104.762  40.1777  5.084281
  9577.363  9577.340  0.500  0.954832  104.557  40.2414  5.110185
  9586.403  9586.380  0.500  0.950784  104.312  40.31  5.136231
  9590.953  9590.930  0.500  0.948833  104.202  40.3461  5.151856