File: xdidata/Dy/Dy-L3-Dy2TiO5.xdi
# XDI/1.0 BlueSky/1.10.0 BMM/2023-1.0-py310-tiled
# Beamline.name: BMM (06BM) -- Beamline for Materials Measurement (NIST)
# Beamline.xray_source: NSLS-II three-pole wiggler
# Beamline.collimation: paraboloid mirror, 5 nm Rh on 30 nm Pt
# Beamline.focusing: not in use
# Beamline.harmonic_rejection: flat mirror, Si stripe, pitch = 7.0 mrad relative to beam
# Beamline.software: Bluesky 1.10.0, Ophyd 1.7.0, DataBroker 2.0.0b13, Python 3.10.8, 2023-1.0-py310-tiled
# Detector.I0: 10 cm N2
# Detector.I1: 25 cm N2
# Detector.I2: 25 cm N2
# Element.symbol: Dy
# Element.edge: L3
# Element.reference: Dy
# Element.reference_material: Dy2O3
# Facility.name: NSLS-II
# Facility.energy: 3.0
# Facility.current: 398.4
# Facility.mode: top-off
# Facility.GUP: 123456
# Facility.SAF: 301027
# Facility.cycle: 2023-2
# Mono.name: Si(111)
# Mono.d_spacing: 3.13519
# Mono.encoder_resolution: 0.0000050 deg/ct
# Mono.angle_offset: 16.0754 deg
# Mono.scan_mode: pseudo channel cut
# Mono.scan_type: step
# Mono.direction: forward in energy
# Sample.name: Dy2TiO5
# Sample.prep: Powder in PEG pellet
# Sample.x: 149.848 mm
# Sample.y: 114.690 mm
# Sample.SDD_position: 205.000 mm
# Scan.experimenters: Bruce Ravel
# Scan.edge_energy: 7790.1
# Scan.start_time: 2023-05-08T18:34:25
# Scan.end_time: 2023-05-08T18:40:22
# Scan.transient_id: 75497
# Scan.uid: 38159fd1-9415-4979-a2f4-ceec8697364b
# Scan.plot_hint: ln(I0/It)  --  ln($5/$6)
# Column.1: energy eV
# Column.2: requested_energy eV
# Column.3: measurement_time seconds
# Column.4: xmu
# Column.5: I0 nA
# Column.6: It nA
# Column.7: Ir nA
# ///////////
# sample courtesy Martin Stennett, University of Sheffield
# -----------
# energy  requested_energy  measurement_time  xmu  I0  It  Ir
  7590.105  7590.100  0.500  1.428831  142.932  34.2448  5.081482
  7610.119  7610.100  0.500  1.414697  142.502  34.6278  5.208468
  7630.121  7630.100  0.500  1.399879  142.894  35.2414  5.371805
  7650.125  7650.100  0.500  1.385501  142.683  35.6991  5.514966
  7670.123  7670.100  0.500  1.371523  142.41  36.1323  5.654736
  7690.076  7690.100  0.500  1.357741  141.966  36.5194  5.788500
  7710.075  7710.100  0.500  1.344436  141.494  36.8857  5.921016
  7730.080  7730.100  0.500  1.331622  141.112  37.2605  6.049216
  7750.081  7750.100  0.500  1.321068  140.783  37.5679  6.148994
  7762.085  7762.100  0.500  1.318628  140.547  37.5967  6.155242
  7766.083  7766.100  0.500  1.319336  140.442  37.542  6.132032
  7770.080  7770.100  0.500  1.322074  140.348  37.4141  6.083337
  7774.079  7774.100  0.500  1.327939  140.244  37.168  5.988919
  7778.080  7778.100  0.500  1.340513  140.186  36.6884  5.804476
  7780.578  7780.600  0.500  1.355552  140.11  36.121  5.592914
  7781.575  7781.600  0.500  1.365113  140.102  35.7753  5.467394
  7782.573  7782.600  0.500  1.377671  140.073  35.3214  5.305760
  7783.579  7783.600  0.500  1.394976  140.053  34.7106  5.088658
  7784.575  7784.600  0.500  1.418141  140.029  33.91  4.815891
  7785.586  7785.600  0.500  1.444718  140  33.0139  4.521780
  7786.585  7786.600  0.500  1.472477  139.984  32.1063  4.229337
  7787.584  7787.600  0.500  1.508287  139.94  30.9671  3.882281
  7788.578  7788.600  0.500  1.561560  139.907  29.3536  3.419145
  7789.594  7789.600  0.500  1.643991  139.908  27.0313  2.809875
  7790.594  7790.600  0.500  1.768935  139.876  23.8508  2.090563
  7791.586  7791.600  0.500  1.953637  139.835  19.8226  1.358531
  7792.592  7792.600  0.500  2.171883  139.822  15.9345  0.826524
  7793.593  7793.600  0.500  2.368811  139.806  13.0847  0.534043
  7794.591  7794.600  0.500  2.494173  139.782  11.5411  0.408085
  7795.592  7795.600  0.500  2.544249  139.741  10.9741  0.363694
  7796.591  7796.600  0.500  2.523901  139.724  11.1984  0.373216
  7797.593  7797.600  0.500  2.437127  139.691  12.2107  0.445691
  7798.598  7798.600  0.500  2.308830  139.675  13.8805  0.593601
  7799.598  7799.600  0.500  2.169420  139.62  15.9508  0.815575
  7800.600  7800.600  0.500  2.051616  139.612  17.944  1.069706
  7801.601  7801.600  0.500  1.961743  139.58  19.6268  1.317033
  7802.601  7802.600  0.500  1.903102  139.584  20.8128  1.510681
  7803.599  7803.600  0.500  1.865357  139.555  21.6088  1.651136
  7804.595  7804.600  0.500  1.839902  139.543  22.1641  1.756990
  7805.602  7805.600  0.500  1.822411  139.511  22.55  1.835280
  7806.603  7806.600  0.500  1.810260  139.474  22.8196  1.892434
  7807.597  7807.600  0.500  1.802526  139.432  22.9898  1.928716
  7808.592  7808.600  0.500  1.798695  139.427  23.0773  1.944899
  7809.597  7809.600  0.500  1.797525  139.382  23.0967  1.943924
  7810.602  7810.600  0.500  1.799071  139.36  23.0575  1.929101
  7811.602  7811.600  0.500  1.801359  139.331  23  1.911093
  7812.593  7812.600  0.500  1.803679  139.32  22.9449  1.898521
  7813.599  7813.600  0.500  1.804954  139.286  22.91  1.896307
  7814.602  7814.600  0.500  1.805417  139.263  22.8957  1.903540
  7816.092  7816.090  0.500  1.805309  139.231  22.8929  1.925410
  7818.114  7818.110  0.500  1.804714  139.207  22.9025  1.952738
  7820.231  7820.220  0.500  1.812162  139.155  22.7241  1.927206
  7822.417  7822.400  0.500  1.830244  139.108  22.3093  1.844490
  7824.668  7824.660  0.500  1.853727  139.051  21.7827  1.739616
  7827.000  7826.990  0.500  1.877918  139.001  21.2544  1.628728
  7829.403  7829.400  0.500  1.899001  138.953  20.8038  1.529563
  7831.883  7831.880  0.500  1.908542  137.77  20.4307  1.471227
  7834.448  7834.440  0.500  1.900006  138.795  20.7592  1.510975
  7837.088  7837.080  0.500  1.877799  138.783  21.2236  1.590617
  7839.809  7839.800  0.500  1.851622  137.648  21.6083  1.670931
  7842.601  7842.590  0.500  1.831505  138.612  22.2018  1.756523
  7845.454  7845.450  0.500  1.818871  137.862  22.3624  1.798272
  7848.400  7848.390  0.500  1.812284  138.451  22.6064  1.842815
  7851.419  7851.410  0.500  1.809105  138.422  22.6736  1.866734
  7854.519  7854.510  0.500  1.807352  137.302  22.5296  1.869611
  7857.690  7857.680  0.500  1.807273  138.231  22.6839  1.893479
  7860.938  7860.930  0.500  1.808574  138.177  22.6455  1.893489
  7864.260  7864.250  0.500  1.811727  138.115  22.5642  1.879886
  7867.664  7867.650  0.500  1.815796  138.023  22.4575  1.852119
  7871.140  7871.130  0.500  1.818855  137.951  22.3772  1.823618
  7874.689  7874.680  0.500  1.819718  137.861  22.3433  1.801889
  7878.320  7878.310  0.500  1.819857  137.779  22.3269  1.790810
  7882.020  7882.010  0.500  1.820418  137.689  22.2999  1.788779
  7885.794  7885.790  0.500  1.820382  137.587  22.2842  1.792763
  7889.664  7889.650  0.500  1.819584  137.499  22.2876  1.798507
  7893.594  7893.580  0.500  1.817191  137.398  22.3246  1.806693
  7897.603  7897.590  0.500  1.814102  137.292  22.3765  1.817912
  7901.699  7901.680  0.500  1.809878  137.149  22.4477  1.827983
  7905.863  7905.840  0.500  1.804406  137.086  22.5606  1.840408
  7910.101  7910.080  0.500  1.796386  136.984  22.7253  1.861344
  7914.422  7914.390  0.500  1.787853  136.872  22.9013  1.895898
  7918.774  7918.780  0.500  1.780987  137.304  23.1318  1.942300
  7923.242  7923.250  0.500  1.777613  137.212  23.1945  1.975654
  7927.778  7927.790  0.500  1.775983  136.262  23.0714  1.976346
  7932.415  7932.410  0.500  1.776091  136.912  23.1789  1.977668
  7937.113  7937.100  0.500  1.776994  136.603  23.1059  1.964238
  7941.888  7941.870  0.500  1.778489  136.829  23.1094  1.958369
  7946.730  7946.720  0.500  1.779618  136.654  23.0539  1.942282
  7951.665  7951.650  0.500  1.777724  136.186  23.0185  1.923445
  7956.672  7956.650  0.500  1.773066  136.338  23.1518  1.930791
  7961.733  7961.720  0.500  1.767963  136.195  23.2458  1.953633
  7966.880  7966.870  0.500  1.763804  136.009  23.3109  1.984504
  7972.110  7972.100  0.500  1.759797  135.78  23.365  2.007453
  7977.418  7977.410  0.500  1.756559  135.463  23.3861  2.019272
  7982.798  7982.790  0.500  1.753738  135.241  23.4138  2.024143
  7988.260  7988.250  0.500  1.751010  135.111  23.4551  2.027725
  7993.790  7993.780  0.500  1.747861  134.985  23.5072  2.031970
  7999.406  7999.390  0.500  1.743538  134.814  23.5791  2.040489
  8005.086  8005.070  0.500  1.738481  134.705  23.6795  2.062088
  8010.859  8010.840  0.500  1.734391  134.758  23.7858  2.090779
  8016.677  8016.670  0.500  1.730536  134.685  23.8647  2.114095
  8022.605  8022.590  0.500  1.727207  134.529  23.9166  2.127324
  8028.597  8028.580  0.500  1.724128  134.385  23.9646  2.133584
  8034.656  8034.650  0.500  1.721449  134.218  23.9991  2.136934
  8040.803  8040.790  0.500  1.718574  134.017  24.0322  2.140696
  8047.020  8047.010  0.500  1.715583  133.85  24.074  2.145171
  8053.311  8053.300  0.500  1.711612  133.596  24.124  2.154927
  8059.678  8059.670  0.500  1.707171  133.403  24.1965  2.171507
  8066.129  8066.120  0.500  1.702407  133.251  24.2842  2.190431
  8072.671  8072.650  0.500  1.698201  133.193  24.3759  2.212837
  8079.263  8079.250  0.500  1.694250  127.369  23.4024  2.140018
  8085.933  8085.920  0.500  1.690008  132.778  24.5  2.252588
  8092.688  8092.670  0.500  1.685644  132.589  24.5722  2.266438
  8099.510  8099.500  0.500  1.681549  132.485  24.6536  2.278061
  8106.429  8106.410  0.500  1.676904  132.26  24.7263  2.291983
  8113.405  8113.390  0.500  1.672198  132.042  24.802  2.310568
  8120.461  8120.450  0.500  1.667387  131.822  24.88  2.332694
  8127.597  8127.580  0.500  1.662794  131.573  24.9474  2.350824
  8134.806  8134.790  0.500  1.658882  131.337  25.0003  2.365447
  8142.102  8142.080  0.500  1.654728  131.083  25.0557  2.378366
  8149.449  8149.440  0.500  1.651057  130.883  25.1094  2.395694
  8156.897  8156.880  0.500  1.646766  130.611  25.165  2.411492
  8164.405  8164.390  0.500  1.642015  130.361  25.2365  2.426319
  8171.996  8171.980  0.500  1.637297  130.084  25.3021  2.440477
  8179.662  8179.650  0.500  1.632267  129.797  25.3735  2.456223
  8187.415  8187.390  0.500  1.626795  129.535  25.4612  2.477331
  8195.220  8195.210  0.500  1.621806  129.252  25.5326  2.498116
  8203.132  8203.110  0.500  1.617090  128.99  25.6013  2.520486
  8211.101  8211.080  0.500  1.612329  128.711  25.668  2.541659
  8219.156  8219.130  0.500  1.607510  128.395  25.7286  2.563615
  8227.264  8227.250  0.500  1.602646  128.109  25.7963  2.586178
  8235.496  8235.450  0.500  1.597642  127.793  25.862  2.605260
  8243.780  8243.730  0.500  1.592403  127.507  25.9395  2.621422
  8252.082  8252.080  0.500  1.587209  127.181  26.0079  2.635710
  8260.500  8260.510  0.500  1.581865  126.891  26.0876  2.656741
  8268.988  8269.010  0.500  1.576626  126.537  26.1517  2.677763
  8277.603  8277.590  0.500  1.571704  125.826  26.133  2.693232
  8286.305  8286.250  0.500  1.566529  125.842  26.2718  2.723964
  8295.046  8294.990  0.500  1.561484  125.465  26.3255  2.744538
  8303.782  8303.800  0.500  1.556452  125.116  26.3848  2.768066
  8312.656  8312.680  0.500  1.551115  124.526  26.401  2.786920
  8321.626  8321.640  0.500  1.545554  122.791  26.1783  2.775526
  8330.732  8330.680  0.500  1.540015  123.96  26.5742  2.826486
  8335.261  8335.230  0.500  1.537310  123.597  26.5681  2.829891