File: xdidata/Eu/Eu-L1-EuTiO3.xdi
# XDI/1.0 BlueSky/1.10.0 BMM/2023-1.0-py310-tiled
# Beamline.name: BMM (06BM) -- Beamline for Materials Measurement (NIST)
# Beamline.xray_source: NSLS-II three-pole wiggler
# Beamline.collimation: paraboloid mirror, 5 nm Rh on 30 nm Pt
# Beamline.focusing: not in use
# Beamline.harmonic_rejection: flat mirror, Pt stripe, pitch = 7.0 mrad relative to beam
# Beamline.software: Bluesky 1.10.0, Ophyd 1.7.0, DataBroker 2.0.0b13, Python 3.10.8, 2023-1.0-py310-tiled
# Detector.I0: 10 cm N2
# Detector.I1: 25 cm N2
# Detector.I2: 25 cm N2
# Element.symbol: Eu
# Element.edge: L1
# Element.reference: Eu
# Element.reference_material: Eu2O3
# Facility.name: NSLS-II
# Facility.energy: 3.0
# Facility.current: 399.7
# Facility.mode: top-off
# Facility.GUP: 123456
# Facility.SAF: 301027
# Facility.cycle: 2023-2
# Mono.name: Si(111)
# Mono.d_spacing: 3.13519
# Mono.encoder_resolution: 0.0000050 deg/ct
# Mono.angle_offset: 16.0754 deg
# Mono.scan_mode: pseudo channel cut
# Mono.scan_type: step
# Mono.direction: forward in energy
# Sample.name: EuTiO3
# Sample.prep: powder on tape
# Sample.x: 123.848 mm
# Sample.y: 114.690 mm
# Sample.SDD_position: 205.000 mm
# Scan.experimenters: Bruce Ravel
# Scan.edge_energy: 8052.0
# Scan.start_time: 2023-05-08T21:16:24
# Scan.end_time: 2023-05-08T21:22:07
# Scan.transient_id: 75620
# Scan.uid: 0175248d-1dd9-40d1-bf32-ab81e7edd67c
# Scan.plot_hint: ln(I0/It)  --  ln($5/$6)
# Column.1: energy eV
# Column.2: requested_energy eV
# Column.3: measurement_time seconds
# Column.4: xmu
# Column.5: I0 nA
# Column.6: It nA
# Column.7: Ir nA
# ///////////
# material made by Fatih Dogan
# -----------
# energy  requested_energy  measurement_time  xmu  I0  It  Ir
  7852.003  7852.000  0.500  0.478305  135.768  84.1535  22.7053
  7872.022  7872.000  0.500  0.469511  135.36  84.6414  22.9934
  7892.101  7892.000  0.500  0.462166  134.937  84.9992  23.3049
  7912.065  7912.000  0.500  0.453668  134.572  85.4927  23.6401
  7932.014  7932.000  0.500  0.445387  134.078  85.8869  23.9384
  7952.019  7952.000  0.500  0.437794  133.552  86.2023  24.2323
  7972.021  7972.000  0.500  0.430219  133.285  86.6841  24.5518
  7992.014  7992.000  0.500  0.422453  132.845  87.0714  24.846
  8011.987  8012.000  0.500  0.415007  132.43  87.4483  25.1527
  8024.009  8024.000  0.500  0.411055  132.306  87.7126  25.3414
  8028.001  8028.000  0.500  0.409490  132.191  87.7733  25.3961
  8031.995  8032.000  0.500  0.408099  132.092  87.8297  25.4439
  8035.996  8036.000  0.500  0.407122  131.968  87.8329  25.4745
  8040.001  8040.000  0.500  0.406397  131.881  87.8387  25.5058
  8042.479  8042.500  0.500  0.406382  131.757  87.7578  25.4907
  8043.481  8043.500  0.500  0.406669  131.743  87.7229  25.4838
  8044.483  8044.500  0.500  0.406971  131.75  87.7013  25.482
  8045.483  8045.500  0.500  0.407644  131.679  87.5951  25.4512
  8046.485  8046.500  0.500  0.408814  131.638  87.4656  25.4121
  8047.480  8047.500  0.500  0.410492  131.567  87.2712  25.3544
  8048.480  8048.500  0.500  0.412388  131.537  87.0866  25.2931
  8049.483  8049.500  0.500  0.414703  131.493  86.8556  25.2143
  8050.487  8050.500  0.500  0.417814  131.424  86.5406  25.1092
  8051.488  8051.500  0.500  0.421770  131.387  86.175  24.9788
  8052.487  8052.500  0.500  0.425690  131.359  85.8195  24.8393
  8053.485  8053.500  0.500  0.429241  131.29  85.4701  24.6862
  8054.485  8054.500  0.500  0.434017  131.73  85.3478  24.5718
  8055.492  8055.500  0.500  0.440089  131.574  84.7306  24.3123
  8056.489  8056.500  0.500  0.446936  131.38  84.0288  24.0325
  8057.489  8057.500  0.500  0.451651  130.397  83.0074  23.6742
  8058.492  8058.500  0.500  0.452637  125.927  80.0829  22.7791
  8059.489  8059.500  0.500  0.449906  130.971  83.5184  23.6805
  8060.487  8060.500  0.500  0.444991  131.88  84.5126  23.8838
  8061.499  8061.500  0.500  0.439079  131.847  84.9927  23.9242
  8062.495  8062.500  0.500  0.433080  131.791  85.4673  23.9398
  8063.493  8063.500  0.500  0.428766  131.725  85.7944  23.8931
  8064.495  8064.500  0.500  0.425847  131.68  86.0157  23.8067
  8065.494  8065.500  0.500  0.424062  131.572  86.0985  23.6767
  8066.499  8066.500  0.500  0.423331  131.5  86.1142  23.5472
  8067.496  8067.500  0.500  0.423497  131.413  86.0429  23.4239
  8068.501  8068.500  0.500  0.424155  131.205  85.8504  23.3041
  8069.496  8069.500  0.500  0.425085  128.992  84.3237  22.856
  8070.496  8070.500  0.500  0.425471  127.026  83.0066  22.4921
  8071.500  8071.500  0.500  0.425746  131.32  85.789  23.2528
  8072.503  8072.500  0.500  0.425530  131.43  85.8792  23.2979
  8073.507  8073.500  0.500  0.424993  131.414  85.9151  23.329
  8074.500  8074.500  0.500  0.424493  131.339  85.9087  23.3544
  8075.494  8075.500  0.500  0.424043  131.25  85.8897  23.3741
  8076.498  8076.500  0.500  0.423280  131.19  85.9157  23.4064
  8077.998  8077.990  0.500  0.422220  130.719  85.6978  23.3905
  8080.017  8080.010  0.500  0.421319  128.785  84.5059  23.134
  8082.124  8082.120  0.500  0.421477  131.198  86.0763  23.6536
  8084.302  8084.300  0.500  0.422011  131.111  85.9731  23.7348
  8086.574  8086.560  0.500  0.423034  130.94  85.7731  23.7979
  8088.897  8088.890  0.500  0.424112  130.748  85.5547  23.8359
  8091.314  8091.300  0.500  0.423970  125.336  82.0253  22.9263
  8093.786  8093.780  0.500  0.422000  131.06  85.9403  24.0787
  8096.350  8096.340  0.500  0.419178  130.914  86.0875  24.1576
  8098.988  8098.980  0.500  0.417376  130.828  86.1863  24.1994
  8101.715  8101.700  0.500  0.417654  130.777  86.1284  24.1739
  8104.502  8104.490  0.500  0.418057  130.672  86.0249  24.1268
  8107.354  8107.350  0.500  0.417043  130.561  86.0389  24.1038
  8110.304  8110.290  0.500  0.414105  130.525  86.268  24.1422
  8113.317  8113.310  0.500  0.411017  130.414  86.4611  24.1789
  8116.423  8116.410  0.500  0.408269  130.345  86.6531  24.22
  8119.600  8119.580  0.500  0.406338  130.293  86.7863  24.2603
  8122.841  8122.830  0.500  0.405653  130.223  86.799  24.2894
  8126.161  8126.150  0.500  0.405355  130.1  86.7429  24.3195
  8129.569  8129.550  0.500  0.405488  130.013  86.6733  24.3682
  8133.042  8133.030  0.500  0.406073  129.925  86.5638  24.4102
  8136.594  8136.580  0.500  0.405504  129.841  86.5572  24.4743
  8140.218  8140.210  0.500  0.403874  129.728  86.623  24.5469
  8143.925  8143.910  0.500  0.402214  129.621  86.6954  24.6104
  8147.706  8147.690  0.500  0.400244  129.56  86.8253  24.6832
  8151.562  8151.550  0.500  0.397885  129.375  86.9061  24.7421
  8155.484  8155.480  0.500  0.396583  129.321  86.9828  24.8072
  8159.496  8159.490  0.500  0.395116  129.219  87.0423  24.8694
  8163.581  8163.580  0.500  0.392888  129.124  87.1722  24.9578
  8167.749  8167.740  0.500  0.390298  129.043  87.3434  25.0534
  8171.991  8171.980  0.500  0.388660  128.941  87.4176  25.1133
  8176.309  8176.290  0.500  0.386841  128.815  87.491  25.169
  8180.697  8180.680  0.500  0.385552  128.693  87.5206  25.2098
  8185.170  8185.150  0.500  0.384987  128.572  87.4884  25.2201
  8189.706  8189.690  0.500  0.384142  128.472  87.4942  25.2528
  8194.322  8194.310  0.500  0.383208  128.332  87.48  25.2943
  8199.022  8199.000  0.500  0.381347  128.223  87.5686  25.3722
  8203.787  8203.770  0.500  0.378881  128.137  87.726  25.4763
  8208.636  8208.620  0.500  0.376494  127.983  87.8301  25.5664
  8213.563  8213.550  0.500  0.374516  127.867  87.9241  25.6599
  8218.562  8218.550  0.500  0.372537  127.708  87.9888  25.7317
  8223.632  8223.620  0.500  0.370386  127.615  88.114  25.814
  8228.784  8228.770  0.500  0.368451  127.475  88.1879  25.8763
  8234.023  8234.000  0.500  0.366707  127.332  88.2425  25.9368
  8239.331  8239.310  0.500  0.365110  127.212  88.3004  26.0049
  8244.712  8244.690  0.500  0.364095  127.044  88.273  26.0502
  8250.165  8250.150  0.500  0.361980  126.862  88.3339  26.1256
  8255.696  8255.680  0.500  0.359911  126.735  88.4278  26.2145
  8261.313  8261.290  0.500  0.357940  126.623  88.5239  26.3044
  8267.002  8266.970  0.500  0.355536  126.411  88.5887  26.3847
  8272.749  8272.740  0.500  0.353173  126.323  88.736  26.4784
  8278.573  8278.570  0.500  0.350946  124.697  87.7896  26.2451
  8284.507  8284.490  0.500  0.348772  125.938  88.8563  26.6156
  8290.492  8290.480  0.500  0.346971  125.775  88.9014  26.6908
  8296.559  8296.550  0.500  0.345041  125.622  88.9643  26.7731
  8302.703  8302.690  0.500  0.343020  125.429  89.0078  26.8525
  8308.928  8308.910  0.500  0.340838  125.247  89.0726  26.9377
  8315.210  8315.200  0.500  0.338806  125.051  89.1142  27.0201
  8321.587  8321.570  0.500  0.336419  124.88  89.205  27.1114
  8328.032  8328.020  0.500  0.333993  124.691  89.286  27.2013
  8334.549  8334.550  0.500  0.331784  124.391  89.2683  27.2591
  8341.157  8341.150  0.500  0.329528  124.085  89.2496  27.319
  8347.830  8347.820  0.500  0.326931  123.809  89.2828  27.391
  8354.585  8354.570  0.500  0.324708  123.357  89.1546  27.4221
  8361.412  8361.400  0.500  0.322642  123.145  89.186  27.4948
  8368.307  8368.310  0.500  0.320461  123.677  89.7663  27.7555
  8375.299  8375.290  0.500  0.317925  123.485  89.8546  27.8526
  8382.362  8382.350  0.500  0.315443  123.255  89.9102  27.9398
  8389.495  8389.480  0.500  0.312997  122.978  89.9278  28.0128
  8396.702  8396.690  0.500  0.311074  122.725  89.9156  28.0771
  8403.990  8403.980  0.500  0.308512  122.539  90.0097  28.1772
  8411.353  8411.340  0.500  0.305825  122.325  90.0941  28.2756
  8418.786  8418.780  0.500  0.303340  122.114  90.1626  28.3736
  8426.312  8426.290  0.500  0.300624  121.884  90.2377  28.4765
  8433.886  8433.880  0.500  0.298246  121.595  90.2377  28.5581
  8441.568  8441.550  0.500  0.295592  121.424  90.3507  28.6761
  8449.302  8449.290  0.500  0.293469  121.176  90.3575  28.7598
  8457.133  8457.110  0.500  0.290806  120.961  90.4379  28.8655
  8465.025  8465.010  0.500  0.288172  120.73  90.5028  28.9639
  8473.000  8472.980  0.500  0.285735  120.432  90.4999  29.0455
  8481.053  8481.030  0.500  0.282922  120.156  90.5471  29.1392
  8489.167  8489.150  0.500  0.280349  119.891  90.5801  29.2305
  8497.375  8497.350  0.500  0.277709  119.584  90.5868  29.315
  8505.646  8505.630  0.500  0.275054  119.325  90.6309  29.4128
  8514.002  8513.980  0.500  0.272365  118.938  90.5802  29.4811
  8522.449  8522.410  0.500  0.269565  118.607  90.5818  29.5708
  8530.927  8530.910  0.500  0.267090  102.747  78.6632  25.7558
  8539.506  8539.490  0.500  0.264253  118.493  90.9766  29.8751
  8548.169  8548.150  0.500  0.261561  118.143  90.9526  29.9553
  8556.900  8556.890  0.500  0.258903  117.812  90.9385  30.0355
  8565.719  8565.700  0.500  0.256193  117.522  90.9615  30.1284
  8574.595  8574.580  0.500  0.253346  117.22  90.9864  30.2269
  8583.559  8583.540  0.500  0.250555  116.864  90.9634  30.313
  8592.596  8592.580  0.500  0.247648  105.282  82.1867  27.4734
  8597.149  8597.130  0.500  0.246382  115.613  90.3662  30.2567