File: xdidata/Eu/Eu-L3-EuropiumOxide.xdi
# XDI/1.0 BlueSky/1.10.0 BMM/2023-1.0-py310-tiled
# Beamline.name: BMM (06BM) -- Beamline for Materials Measurement (NIST)
# Beamline.xray_source: NSLS-II three-pole wiggler
# Beamline.collimation: paraboloid mirror, 5 nm Rh on 30 nm Pt
# Beamline.focusing: not in use
# Beamline.harmonic_rejection: flat mirror, Si stripe, pitch = 7.0 mrad relative to beam
# Beamline.software: Bluesky 1.10.0, Ophyd 1.7.0, DataBroker 2.0.0b13, Python 3.10.8, 2023-1.0-py310-tiled
# Detector.I0: 10 cm N2
# Detector.I1: 25 cm N2
# Detector.I2: 25 cm N2
# Element.symbol: Eu
# Element.edge: L3
# Element.reference: Eu
# Element.reference_material: Eu2O3
# Facility.name: NSLS-II
# Facility.energy: 3.0
# Facility.current: 400.1
# Facility.mode: top-off
# Facility.GUP: 301027
# Facility.SAF: 310583
# Facility.cycle: 2023-2
# Mono.name: Si(111)
# Mono.d_spacing: 3.13519
# Mono.encoder_resolution: 0.0000050 deg/ct
# Mono.angle_offset: 16.0754 deg
# Mono.scan_mode: pseudo channel cut
# Mono.scan_type: step
# Mono.direction: forward in energy
# Sample.name: Eu2O3
# Sample.prep: PEG pellet
# Sample.x: 109.138 mm
# Sample.y: 153.150 mm
# Sample.SDD_position: 205.000 mm
# Scan.experimenters: Bruce Ravel
# Scan.edge_energy: 6976.9
# Scan.start_time: 2023-05-28T13:07:35
# Scan.end_time: 2023-05-28T13:14:58
# Scan.transient_id: 78707
# Scan.uid: a7f3b61d-40ed-4e18-b3bd-ca526332a12d
# Scan.plot_hint: ln(It/Ir)  --  ln($6/$7)
# Column.1: energy eV
# Column.2: requested_energy eV
# Column.3: measurement_time seconds
# Column.4: xmu
# Column.5: I0 nA
# Column.6: It nA
# Column.7: Ir nA
# ///////////
# sample courtesy Martin Stennett, University of Sheffield
# -----------
# energy  requested_energy  measurement_time  xmu  I0  It  Ir
  6776.912  6776.900  0.500  1.737802  153.403  135.839  23.8951
  6806.899  6806.900  0.500  1.715214  153.381  137.198  24.6854
  6836.904  6836.900  0.500  1.693047  153.661  138.873  25.5468
  6866.916  6866.900  0.500  1.671240  153.707  140.334  26.3848
  6896.911  6896.900  0.500  1.649900  154.1  142.175  27.3075
  6926.911  6926.900  0.500  1.629643  154  143.401  28.1065
  6948.878  6948.900  0.500  1.616672  154.114  144.591  28.7098
  6954.886  6954.900  0.500  1.614966  154.132  144.881  28.8165
  6961.124  6960.900  0.500  1.615433  154.096  145.08  28.8426
  6966.897  6966.900  0.500  1.622660  154.091  145.424  28.7027
  6967.783  6967.800  0.500  1.625306  154.071  145.387  28.6196
  6968.681  6968.700  0.500  1.628989  154.078  145.443  28.5254
  6969.583  6969.600  0.500  1.633815  154.041  145.493  28.3978
  6970.486  6970.500  0.500  1.639153  154.041  145.56  28.2597
  6971.390  6971.400  0.500  1.644425  154.025  145.523  28.1039
  6972.292  6972.300  0.500  1.651793  154.02  145.513  27.8958
  6973.189  6973.200  0.500  1.662783  154  145.634  27.6138
  6974.084  6974.100  0.500  1.679106  153.983  145.598  27.16
  6974.998  6975.000  0.500  1.699464  153.992  145.638  26.6199
  6975.894  6975.900  0.500  1.725709  154.456  146.161  26.0235
  6976.800  6976.800  0.500  1.762218  154.486  146.217  25.1002
  6977.692  6977.700  0.500  1.817070  154.468  146.245  23.7649
  6978.595  6978.600  0.500  1.899094  154.466  146.271  21.8974
  6979.496  6979.500  0.500  2.017838  154.448  146.273  19.4459
  6980.401  6980.400  0.500  2.163190  154.442  146.296  16.8179
  6981.297  6981.300  0.500  2.293694  154.427  146.318  14.7625
  6982.194  6982.200  0.500  2.391212  154.414  146.421  13.4003
  6983.098  6983.100  0.500  2.435286  154.407  146.383  12.8191
  6983.996  6984.000  0.500  2.411958  154.394  146.486  13.1309
  6984.902  6984.900  0.500  2.332605  154.373  146.482  14.215
  6985.795  6985.800  0.500  2.229404  154.379  146.559  15.7686
  6986.700  6986.700  0.500  2.129545  154.376  146.539  17.4223
  6987.599  6987.600  0.500  2.049512  154.364  146.623  18.8847
  6988.504  6988.500  0.500  1.989282  154.344  146.641  20.0596
  6989.395  6989.400  0.500  1.948959  154.346  146.644  20.8854
  6990.297  6990.300  0.500  1.920974  154.326  146.672  21.4823
  6991.201  6991.200  0.500  1.902418  154.336  146.749  21.896
  6992.099  6992.100  0.500  1.890096  154.329  146.789  22.1736
  6992.999  6993.000  0.500  1.881367  154.311  146.819  22.3725
  6993.898  6993.900  0.500  1.874802  154.301  146.81  22.5185
  6994.803  6994.800  0.500  1.869973  154.275  146.816  22.6285
  6995.698  6995.700  0.500  1.867302  154.272  146.836  22.692
  6996.603  6996.600  0.500  1.865888  154.242  146.857  22.7274
  6997.495  6997.500  0.500  1.865173  154.238  146.926  22.7543
  6998.401  6998.400  0.500  1.864770  154.218  146.965  22.7695
  6999.301  6999.300  0.500  1.863945  154.216  146.961  22.7878
  7000.203  7000.200  0.500  1.862588  154.186  147.005  22.8255
  7001.102  7001.100  0.500  1.860813  154.181  147.04  22.8715
  7001.896  7001.900  0.500  1.859367  154.179  147.099  22.9138
  7004.922  7004.910  0.500  1.857287  154.171  147.225  22.9811
  7008.113  7008.100  0.500  1.870496  154.125  147.274  22.6871
  7011.471  7011.460  0.500  1.896143  154.11  147.46  22.1406
  7014.988  7014.980  0.500  1.919149  154.103  147.608  21.6588
  7018.691  7018.680  0.500  1.926609  154.081  147.743  21.5175
  7022.563  7022.550  0.500  1.912864  154.08  147.85  21.831
  7026.605  7026.600  0.500  1.890547  154.061  148.039  22.3522
  7030.816  7030.810  0.500  1.872306  154.042  148.222  22.7918
  7035.201  7035.190  0.500  1.861101  153.982  148.421  23.0797
  7039.762  7039.750  0.500  1.854894  153.956  148.545  23.2427
  7044.488  7044.480  0.500  1.852290  153.935  148.776  23.3396
  7049.385  7049.380  0.500  1.853544  153.907  148.989  23.3437
  7054.462  7054.450  0.500  1.857511  153.885  149.141  23.2751
  7059.699  7059.690  0.500  1.861381  153.899  149.387  23.2234
  7065.118  7065.110  0.500  1.861915  153.788  149.532  23.2335
  7070.708  7070.690  0.500  1.858459  152.932  148.977  23.2274
  7076.473  7076.450  0.500  1.852772  153.477  149.728  23.4776
  7082.371  7082.380  0.500  1.847246  153.693  150.21  23.6838
  7088.488  7088.480  0.500  1.841632  153.641  150.47  23.8583
  7094.761  7094.750  0.500  1.834893  153.598  150.714  24.0586
  7101.195  7101.190  0.500  1.826854  153.565  150.965  24.2931
  7107.807  7107.800  0.500  1.818606  153.488  151.163  24.5264
  7114.596  7114.590  0.500  1.815218  153.168  151.189  24.6139
  7121.558  7121.550  0.500  1.815915  153.438  151.754  24.6887
  7128.679  7128.670  0.500  1.816416  153.092  151.689  24.6658
  7135.981  7135.970  0.500  1.814512  152.821  151.7  24.7145
  7143.461  7143.450  0.500  1.807799  152.81  152.013  24.9324
  7151.100  7151.090  0.500  1.798791  152.813  152.36  25.2155
  7158.906  7158.900  0.500  1.792633  152.763  152.699  25.4276
  7166.896  7166.890  0.500  1.788291  152.58  152.79  25.5535
  7175.065  7175.050  0.500  1.783807  152.426  153.027  25.7082
  7183.386  7183.370  0.500  1.778258  152.321  153.308  25.8987
  7191.885  7191.870  0.500  1.771117  150.789  152.122  25.8824
  7200.565  7200.550  0.500  1.764116  151.932  153.592  26.3162
  7209.408  7209.390  0.500  1.759073  151.734  153.81  26.4867
  7218.409  7218.400  0.500  1.755409  151.519  153.956  26.6092
  7227.606  7227.590  0.500  1.750870  150.484  153.308  26.6178
  7236.964  7236.950  0.500  1.744608  151.236  154.479  26.9896
  7246.478  7246.470  0.500  1.737434  150.759  154.377  27.1659
  7256.188  7256.170  0.500  1.730115  151.013  155.062  27.4869
  7266.066  7266.050  0.500  1.723497  149.098  153.48  27.3872
  7276.103  7276.090  0.500  1.717700  151.175  155.957  27.991
  7286.304  7286.300  0.500  1.711767  150.657  155.865  28.141
  7296.700  7296.690  0.500  1.704560  150.687  156.346  28.4319
  7307.261  7307.250  0.500  1.697120  150.62  156.762  28.7204
  7317.992  7317.980  0.500  1.690435  150.405  156.907  28.9398
  7328.888  7328.880  0.500  1.683974  150.18  157.158  29.174
  7339.956  7339.950  0.500  1.677646  148.129  155.507  29.0508
  7351.199  7351.190  0.500  1.670978  149.711  157.579  29.6347
  7362.624  7362.610  0.500  1.663587  149.493  157.799  29.8963
  7374.205  7374.190  0.500  1.655801  149.254  158.019  30.172
  7385.958  7385.950  0.500  1.647937  148.989  158.197  30.4445
  7397.900  7397.880  0.500  1.640294  148.749  158.43  30.7232
  7409.998  7409.980  0.500  1.633089  148.471  158.589  30.9764
  7422.266  7422.250  0.500  1.626092  148.139  158.741  31.2238
  7434.708  7434.690  0.500  1.618479  147.818  158.798  31.4737
  7447.328  7447.310  0.500  1.610441  147.05  158.466  31.6613
  7460.108  7460.090  0.500  1.602553  143.367  154.994  31.2129
  7473.068  7473.050  0.500  1.594255  146.943  159.344  32.3564
  7486.205  7486.180  0.500  1.586330  146.55  159.428  32.631
  7499.510  7499.480  0.500  1.578821  146.177  159.501  32.8919
  7512.970  7512.950  0.500  1.570924  145.785  159.624  33.1782
  7526.594  7526.600  0.500  1.562314  145.351  159.639  33.4684
  7540.431  7540.410  0.500  1.553379  144.913  159.652  33.7715
  7554.420  7554.400  0.500  1.544639  144.446  159.678  34.0736
  7568.574  7568.560  0.500  1.536456  143.984  159.658  34.3492
  7582.890  7582.890  0.500  1.528543  143.469  159.591  34.6074
  7592.536  7592.530  0.500  1.523556  143.047  159.491  34.7587