File: xdidata/Eu/Eu-L3-Eu2Ti2O7.xdi
# XDI/1.0 BlueSky/1.10.0 BMM/2023-1.0-py310-tiled
# Beamline.name: BMM (06BM) -- Beamline for Materials Measurement (NIST)
# Beamline.xray_source: NSLS-II three-pole wiggler
# Beamline.collimation: paraboloid mirror, 5 nm Rh on 30 nm Pt
# Beamline.focusing: not in use
# Beamline.harmonic_rejection: flat mirror, Si stripe, pitch = 7.0 mrad relative to beam
# Beamline.software: Bluesky 1.10.0, Ophyd 1.7.0, DataBroker 2.0.0b13, Python 3.10.8, 2023-1.0-py310-tiled
# Detector.I0: 10 cm N2
# Detector.I1: 25 cm N2
# Detector.I2: 25 cm N2
# Element.symbol: Eu
# Element.edge: L3
# Element.reference: Eu
# Element.reference_material: Eu2O3
# Facility.name: NSLS-II
# Facility.energy: 3.0
# Facility.current: 400.6
# Facility.mode: top-off
# Facility.GUP: 123456
# Facility.SAF: 301027
# Facility.cycle: 2023-2
# Mono.name: Si(111)
# Mono.d_spacing: 3.13519
# Mono.encoder_resolution: 0.0000050 deg/ct
# Mono.angle_offset: 16.0754 deg
# Mono.scan_mode: pseudo channel cut
# Mono.scan_type: step
# Mono.direction: forward in energy
# Sample.name: Eu2Ti2O7
# Sample.prep: powder on tape
# Sample.x: 123.848 mm
# Sample.y: 114.690 mm
# Sample.SDD_position: 205.000 mm
# Scan.experimenters: Bruce Ravel
# Scan.edge_energy: 6976.9
# Scan.start_time: 2023-05-08T17:34:06
# Scan.end_time: 2023-05-08T17:40:12
# Scan.transient_id: 75451
# Scan.uid: fa181008-7ffb-4c29-aee5-fc1453098621
# Scan.plot_hint: ln(I0/It)  --  ln($5/$6)
# Column.1: energy eV
# Column.2: requested_energy eV
# Column.3: measurement_time seconds
# Column.4: xmu
# Column.5: I0 nA
# Column.6: It nA
# Column.7: Ir nA
# ///////////
# material made by Fatih Dogan
# -----------
# energy  requested_energy  measurement_time  xmu  I0  It  Ir
  6776.904  6776.900  0.500  1.025868  151.811  54.4218  13.3987
  6796.915  6796.900  0.500  1.010812  151.053  54.9716  13.7026
  6816.982  6816.900  0.500  0.996072  151.951  56.1196  14.161
  6836.906  6836.900  0.500  0.981688  152.134  57.0013  14.5575
  6856.912  6856.900  0.500  0.967509  152.011  57.7685  14.9299
  6876.916  6876.900  0.500  0.953360  152.383  58.7352  15.3605
  6896.911  6896.900  0.500  0.939338  152.589  59.645  15.7786
  6916.913  6916.900  0.500  0.925880  152.526  60.4282  16.1652
  6936.914  6936.900  0.500  0.913040  152.448  61.1776  16.5351
  6948.899  6948.900  0.500  0.906566  152.472  61.5846  16.7215
  6952.899  6952.900  0.500  0.904781  152.487  61.7008  16.7674
  6956.901  6956.900  0.500  0.903841  152.485  61.758  16.7828
  6960.897  6960.900  0.500  0.903665  152.508  61.7783  16.7693
  6964.899  6964.900  0.500  0.906054  152.483  61.6207  16.6569
  6967.386  6967.400  0.500  0.910044  152.495  61.3804  16.4924
  6968.383  6968.400  0.500  0.912463  152.492  61.2307  16.3872
  6969.388  6969.400  0.500  0.916647  152.496  60.9766  16.2297
  6970.387  6970.400  0.500  0.920889  152.488  60.7152  16.064
  6971.386  6971.400  0.500  0.925946  152.472  60.403  15.8801
  6972.390  6972.400  0.500  0.932799  152.482  59.9942  15.6222
  6973.390  6973.400  0.500  0.944482  152.474  59.2941  15.2105
  6974.389  6974.400  0.500  0.960828  152.473  58.3326  14.6528
  6975.389  6975.400  0.500  0.982460  152.47  57.083  13.964
  6976.392  6976.400  0.500  1.014717  152.456  55.2659  13.0119
  6977.396  6977.400  0.500  1.064921  152.443  52.5556  11.6675
  6978.397  6978.400  0.500  1.145352  152.419  48.4864  9.814190
  6979.389  6979.400  0.500  1.266461  152.428  42.9584  7.603248
  6980.391  6980.400  0.500  1.419932  152.406  36.8412  5.544285
  6981.396  6981.400  0.500  1.553821  152.407  32.2248  4.242420
  6982.398  6982.400  0.500  1.636730  152.397  29.6588  3.588971
  6983.395  6983.400  0.500  1.640848  152.4  29.5376  3.550886
  6984.392  6984.400  0.500  1.572221  152.386  31.6329  4.092657
  6985.396  6985.400  0.500  1.466148  152.387  35.1728  5.086134
  6986.400  6986.400  0.500  1.353682  152.391  39.3608  6.362418
  6987.394  6987.400  0.500  1.264187  152.391  43.0458  7.587706
  6988.396  6988.400  0.500  1.200549  152.404  45.8779  8.614209
  6989.391  6989.400  0.500  1.161905  152.396  47.6832  9.324489
  6990.400  6990.400  0.500  1.138251  152.382  48.8201  9.806634
  6991.395  6991.400  0.500  1.122823  152.381  49.5786  10.1244
  6992.399  6992.400  0.500  1.110217  152.371  50.2042  10.3691
  6993.405  6993.400  0.500  1.100231  152.371  50.7083  10.5557
  6994.395  6994.400  0.500  1.092405  152.356  51.1016  10.6973
  6995.404  6995.400  0.500  1.087659  152.355  51.3444  10.7825
  6996.407  6996.400  0.500  1.085302  152.356  51.4659  10.8226
  6997.401  6997.400  0.500  1.085156  152.345  51.4697  10.8276
  6998.399  6998.400  0.500  1.087652  152.336  51.3381  10.8046
  6999.402  6999.400  0.500  1.092064  152.328  51.1095  10.7691
  7000.404  7000.400  0.500  1.097767  152.32  50.8163  10.7245
  7001.402  7001.400  0.500  1.103419  152.32  50.5299  10.6841
  7002.889  7002.890  0.500  1.109248  152.309  50.2324  10.6454
  7004.912  7004.910  0.500  1.110158  152.31  50.1871  10.6299
  7007.023  7007.020  0.500  1.110303  152.286  50.1721  10.5394
  7009.205  7009.200  0.500  1.116053  152.263  49.8768  10.3196
  7011.469  7011.460  0.500  1.124894  152.241  49.4307  10.0458
  7013.807  7013.790  0.500  1.134974  152.229  48.9309  9.783994
  7016.208  7016.200  0.500  1.142006  152.203  48.5799  9.608290
  7018.691  7018.680  0.500  1.143436  152.194  48.5077  9.577467
  7021.245  7021.240  0.500  1.137571  152.191  48.7921  9.710953
  7023.885  7023.880  0.500  1.126365  152.15  49.3283  9.949259
  7026.613  7026.600  0.500  1.113098  152.137  49.9831  10.2313
  7029.399  7029.390  0.500  1.100545  152.7  50.8016  10.5291
  7032.261  7032.250  0.500  1.091798  152.667  51.2368  10.7126
  7035.205  7035.190  0.500  1.086816  152.643  51.4848  10.8329
  7038.219  7038.210  0.500  1.085100  152.648  51.575  10.8956
  7041.322  7041.310  0.500  1.086516  152.628  51.4951  10.9029
  7044.492  7044.480  0.500  1.089864  152.611  51.3173  10.8756
  7047.737  7047.730  0.500  1.095097  152.563  51.0333  10.8043
  7051.063  7051.050  0.500  1.097585  152.564  50.9068  10.7518
  7054.460  7054.450  0.500  1.095120  152.557  51.0302  10.742
  7057.943  7057.930  0.500  1.091340  152.546  51.2197  10.7468
  7061.493  7061.480  0.500  1.086431  152.541  51.4702  10.7798
  7065.120  7065.110  0.500  1.080427  152.415  51.7374  10.834
  7068.802  7068.810  0.500  1.076679  152.379  51.9194  10.8898
  7072.588  7072.590  0.500  1.076889  152.34  51.895  10.9172
  7076.458  7076.450  0.500  1.078491  152.17  51.7544  10.9249
  7080.395  7080.380  0.500  1.078913  152.298  51.7761  10.9664
  7084.408  7084.390  0.500  1.075532  152.11  51.8872  11.0254
  7088.488  7088.480  0.500  1.070160  152.186  52.1928  11.1253
  7092.650  7092.640  0.500  1.065540  152.134  52.4166  11.2171
  7096.889  7096.880  0.500  1.060407  152.097  52.6736  11.3244
  7101.191  7101.190  0.500  1.054054  152.075  53.0013  11.452
  7105.584  7105.580  0.500  1.049805  152.025  53.2095  11.5564
  7110.061  7110.050  0.500  1.049437  151.936  53.1982  11.5974
  7114.598  7114.590  0.500  1.049914  151.65  53.0728  11.5781
  7119.215  7119.210  0.500  1.049901  151.512  53.0249  11.5547
  7123.912  7123.900  0.500  1.048068  151.332  53.0591  11.552
  7128.685  7128.670  0.500  1.044731  151.059  53.1406  11.5602
  7133.531  7133.520  0.500  1.041127  150.791  53.2378  11.585
  7138.456  7138.450  0.500  1.036499  150.779  53.4803  11.6678
  7143.461  7143.450  0.500  1.030985  150.782  53.7771  11.7859
  7148.528  7148.520  0.500  1.026475  150.781  54.0198  11.9077
  7153.682  7153.670  0.500  1.023021  150.748  54.1949  11.9989
  7158.912  7158.900  0.500  1.020609  150.714  54.3135  12.0633
  7164.221  7164.210  0.500  1.018697  150.6  54.3762  12.1044
  7169.598  7169.590  0.500  1.017299  150.472  54.4063  12.1378
  7175.065  7175.050  0.500  1.013636  150.365  54.567  12.2036
  7180.591  7180.580  0.500  1.009624  150.308  54.7655  12.2852
  7186.205  7186.190  0.500  1.006070  150.219  54.9281  12.3706
  7191.880  7191.870  0.500  1.001501  147.87  54.3167  12.2827
  7197.653  7197.640  0.500  0.996872  149.951  55.3368  12.5665
  7203.484  7203.470  0.500  0.992146  149.839  55.5574  12.6578
  7209.399  7209.390  0.500  0.988835  149.686  55.6848  12.7168
  7215.396  7215.380  0.500  0.985441  149.535  55.8175  12.7709
  7221.463  7221.450  0.500  0.982091  149.391  55.951  12.8271
  7227.600  7227.590  0.500  0.979029  147.161  55.2847  12.7064
  7233.823  7233.810  0.500  0.975677  149.271  56.2656  12.9755
  7240.116  7240.100  0.500  0.970940  149.151  56.4874  13.0785
  7246.484  7246.470  0.500  0.965771  148.831  56.6583  13.172
  7252.927  7252.920  0.500  0.961050  148.681  56.8693  13.2763
  7259.456  7259.450  0.500  0.956833  148.727  57.1271  13.3916
  7266.059  7266.050  0.500  0.952876  148.274  57.179  13.4519
  7272.734  7272.720  0.500  0.949551  148.892  57.6084  13.5953
  7279.482  7279.470  0.500  0.946175  149.046  57.863  13.6974
  7286.308  7286.300  0.500  0.942222  148.716  57.9637  13.7686
  7293.214  7293.210  0.500  0.938218  148.731  58.202  13.8797
  7300.194  7300.190  0.500  0.933536  148.367  58.3322  13.9703
  7307.256  7307.250  0.500  0.928485  148.567  58.7065  14.1164
  7314.391  7314.380  0.500  0.922824  148.386  58.9679  14.2347
  7321.598  7321.590  0.500  0.918138  148.232  59.1835  14.3377
  7328.884  7328.880  0.500  0.913567  148.096  59.3998  14.4409
  7336.244  7336.240  0.500  0.909354  147.954  59.5934  14.5372
  7343.686  7343.680  0.500  0.905025  147.719  59.7571  14.6275
  7351.199  7351.190  0.500  0.900760  147.598  59.9634  14.7343
  7358.785  7358.780  0.500  0.896491  147.455  60.1616  14.8456
  7366.464  7366.450  0.500  0.892004  147.287  60.3634  14.9593
  7374.205  7374.190  0.500  0.886930  147.134  60.6074  15.0866
  7382.024  7382.010  0.500  0.881860  146.947  60.8377  15.2114
  7389.932  7389.910  0.500  0.876876  146.781  61.0729  15.3365
  7397.895  7397.880  0.500  0.871571  146.62  61.3301  15.4674
  7405.962  7405.930  0.500  0.866756  146.418  61.5416  15.5836
  7414.064  7414.050  0.500  0.862563  146.197  61.7065  15.6846
  7422.263  7422.250  0.500  0.857922  145.999  61.9099  15.7968
  7430.527  7430.530  0.500  0.853141  145.779  62.1129  15.9165
  7438.910  7438.880  0.500  0.848306  145.55  62.3159  16.0375
  7447.342  7447.310  0.500  0.842482  145.396  62.6132  16.1881
  7455.836  7455.810  0.500  0.836986  145.127  62.842  16.3192
  7464.381  7464.390  0.500  0.831572  144.878  63.0746  16.4554
  7473.053  7473.050  0.500  0.826676  144.741  63.3243  16.5963
  7481.825  7481.790  0.500  0.821510  144.44  63.5198  16.7232
  7490.592  7490.600  0.500  0.816934  144.137  63.6777  16.8347
  7499.474  7499.480  0.500  0.811837  143.884  63.8906  16.9601
  7508.421  7508.440  0.500  0.806940  143.572  64.0648  17.0782
  7517.467  7517.480  0.500  0.801613  143.282  64.2772  17.2156
  7526.581  7526.600  0.500  0.795993  142.992  64.5086  17.363
  7535.782  7535.790  0.500  0.790432  142.662  64.7185  17.5096
  7545.098  7545.060  0.500  0.784873  142.352  64.9379  17.6577
  7554.413  7554.400  0.500  0.779625  142.546  65.3683  17.8599
  7563.833  7563.820  0.500  0.774345  142.234  65.5706  17.9982
  7573.335  7573.310  0.500  0.768688  141.915  65.7948  18.1389
  7582.909  7582.890  0.500  0.763440  141.558  65.9746  18.2677
  7592.543  7592.530  0.500  0.758699  141.136  66.0906  18.3737