File: xdidata/Sr/Sr-K-SrCe2Ti4O12.xdi
# XDI/1.0 BlueSky/1.10.0 BMM/2023-1.0-py310-tiled
# Beamline.name: BMM (06BM) -- Beamline for Materials Measurement (NIST)
# Beamline.xray_source: NSLS-II three-pole wiggler
# Beamline.collimation: paraboloid mirror, 5 nm Rh on 30 nm Pt
# Beamline.focusing: not in use
# Beamline.harmonic_rejection: flat mirror, Pt stripe, pitch = 7.0 mrad relative to beam
# Beamline.software: Bluesky 1.10.0, Ophyd 1.7.0, DataBroker 2.0.0b13, Python 3.10.8, 2023-1.0-py310-tiled
# Detector.I0: 10 cm N2
# Detector.I1: 25 cm N2
# Detector.I2: 25 cm N2
# Element.symbol: Sr
# Element.edge: K
# Element.reference: Sr
# Element.reference_material: SrTiO3
# Facility.name: NSLS-II
# Facility.energy: 3.0
# Facility.current: 399.4
# Facility.mode: top-off
# Facility.GUP: 301027
# Facility.SAF: 310583
# Facility.cycle: 2023-2
# Mono.name: Si(111)
# Mono.d_spacing: 3.13519
# Mono.encoder_resolution: 0.0000050 deg/ct
# Mono.angle_offset: 16.0754 deg
# Mono.scan_mode: pseudo channel cut
# Mono.scan_type: step
# Mono.direction: forward in energy
# Sample.name: SrCe2Ti4O12
# Sample.prep: Powder in PEG pellet
# Sample.x: 145.711 mm
# Sample.y: 114.376 mm
# Sample.SDD_position: 205.000 mm
# Scan.experimenters: Bruce Ravel
# Scan.edge_energy: 16104.6
# Scan.start_time: 2023-06-27T13:59:49
# Scan.end_time: 2023-06-27T14:06:28
# Scan.transient_id: 85139
# Scan.uid: ebefdba6-0575-4e3d-9217-dc587bf6cc1d
# Scan.plot_hint: ln(I0/It)  --  ln($5/$6)
# Column.1: energy eV
# Column.2: requested_energy eV
# Column.3: measurement_time seconds
# Column.4: xmu
# Column.5: I0 nA
# Column.6: It nA
# Column.7: Ir nA
# ///////////
# sample courtesy Martin Stennett, University of Sheffield
# -----------
# energy  requested_energy  measurement_time  xmu  I0  It  Ir
  15904.571  15904.600  0.500  -0.301082  22.6522  30.6104  25.2013
  15934.603  15934.600  0.500  -0.302757  22.5371  30.5059  25.1417
  15964.616  15964.600  0.500  -0.304734  22.4441  30.4401  25.1088
  15994.631  15994.600  0.500  -0.306470  22.3204  30.3249  25.0319
  16024.603  16024.600  0.500  -0.308065  22.02  29.9646  24.7562
  16054.608  16054.600  0.500  -0.309768  22.0159  30.0101  24.8035
  16076.562  16076.600  0.500  -0.310726  21.8548  29.8191  24.6395
  16082.575  16082.600  0.500  -0.310848  21.8788  29.8555  24.6601
  16088.559  16088.600  0.500  -0.310769  21.8517  29.8161  24.6106
  16094.558  16094.600  0.500  -0.310616  21.8251  29.7752  24.5464
  16095.432  16095.500  0.500  -0.310613  21.8106  29.7554  24.5186
  16096.351  16096.400  0.500  -0.310624  21.801  29.7426  24.5013
  16097.248  16097.300  0.500  -0.310335  21.8033  29.7372  24.4914
  16098.179  16098.200  0.500  -0.310295  21.7935  29.7226  24.465
  16099.064  16099.100  0.500  -0.309993  21.783  29.6992  24.4351
  16099.995  16100.000  0.500  -0.309861  21.7693  29.6767  24.4048
  16100.858  16100.900  0.500  -0.309729  21.7594  29.6592  24.3738
  16101.812  16101.800  0.500  -0.309253  21.7632  29.6503  24.3468
  16102.686  16102.700  0.500  -0.309033  21.7649  29.6462  24.3181
  16103.583  16103.600  0.500  -0.308558  21.762  29.6281  24.2748
  16104.469  16104.500  0.500  -0.307938  21.7608  29.6081  24.2231
  16105.390  16105.400  0.500  -0.307343  21.7513  29.5776  24.1427
  16106.276  16106.300  0.500  -0.306172  21.7435  29.5323  24.0472
  16107.162  16107.200  0.500  -0.304508  21.7478  29.4891  23.917
  16108.083  16108.100  0.500  -0.302041  21.7426  29.4094  23.7218
  16108.958  16109.000  0.500  -0.299126  21.7318  29.3093  23.4758
  16109.901  16109.900  0.500  -0.295191  21.7259  29.1862  23.1579
  16110.765  16110.800  0.500  -0.290666  21.7218  29.049  22.7889
  16111.686  16111.700  0.500  -0.284834  21.7087  28.8626  22.2921
  16112.607  16112.600  0.500  -0.278159  21.7095  28.6716  21.7021
  16113.494  16113.500  0.500  -0.269663  21.7054  28.4237  20.9959
  16114.404  16114.400  0.500  -0.259211  21.7083  28.1319  20.2481
  16115.291  16115.300  0.500  -0.246922  21.6927  27.7684  19.4953
  16116.201  16116.200  0.500  -0.232481  21.6896  27.3663  18.7179
  16117.089  16117.100  0.500  -0.218615  21.6848  26.9835  17.9558
  16118.022  16118.000  0.500  -0.207240  21.6816  26.6744  17.2356
  16118.909  16118.900  0.500  -0.202041  21.6802  26.5343  16.7892
  16119.797  16119.800  0.500  -0.203281  21.6714  26.5565  16.7099
  16120.708  16120.700  0.500  -0.209844  21.6504  26.7054  16.972
  16121.595  16121.600  0.500  -0.218409  21.6366  26.918  17.4469
  16122.495  16122.500  0.500  -0.227784  21.6192  27.1497  18.0264
  16123.394  16123.400  0.500  -0.236369  21.5904  27.3473  18.5888
  16124.271  16124.300  0.500  -0.243697  21.572  27.525  19.098
  16125.182  16125.200  0.500  -0.249466  21.5901  27.7074  19.5358
  16126.059  16126.100  0.500  -0.253650  21.6083  27.8471  19.8448
  16126.993  16127.000  0.500  -0.256030  21.6328  27.9451  20.0576
  16127.871  16127.900  0.500  -0.256906  21.6286  27.9641  20.1314
  16128.782  16128.800  0.500  -0.256340  21.6316  27.9522  20.1197
  16129.603  16129.600  0.500  -0.255019  21.6101  27.8875  20.031
  16132.657  16132.610  0.500  -0.249933  21.5947  27.7263  19.7016
  16135.838  16135.800  0.500  -0.250583  21.5815  27.7274  19.7737
  16139.192  16139.160  0.500  -0.252678  21.5626  27.7612  19.8326
  16142.684  16142.680  0.500  -0.251785  21.5362  27.7025  19.6154
  16146.383  16146.380  0.500  -0.249560  21.4952  27.5883  19.2674
  16150.289  16150.250  0.500  -0.245331  21.5055  27.4849  18.9114
  16154.335  16154.300  0.500  -0.243905  21.4885  27.4242  19.0288
  16158.531  16158.510  0.500  -0.248008  21.4651  27.5069  19.3884
  16162.912  16162.890  0.500  -0.247988  21.4381  27.4718  19.1858
  16167.479  16167.450  0.500  -0.245061  21.4216  27.3704  19.0248
  16172.152  16172.180  0.500  -0.248498  21.4001  27.437  19.4054
  16177.091  16177.080  0.500  -0.254967  21.3643  27.5689  19.6668
  16182.183  16182.150  0.500  -0.257386  21.3509  27.6183  19.7615
  16187.392  16187.390  0.500  -0.255938  21.3963  27.637  19.6467
  16192.800  16192.810  0.500  -0.252635  21.3699  27.5119  19.338
  16198.418  16198.390  0.500  -0.250439  21.339  27.4119  19.2123
  16204.156  16204.150  0.500  -0.251015  21.3142  27.3958  19.157
  16210.081  16210.080  0.500  -0.252655  21.2861  27.4046  19.2968
  16216.207  16216.180  0.500  -0.253884  21.2535  27.3962  19.4325
  16222.418  16222.450  0.500  -0.256060  21.2303  27.4259  19.5246
  16228.923  16228.890  0.500  -0.258251  21.1946  27.4399  19.5932
  16235.513  16235.500  0.500  -0.258943  21.1208  27.3633  19.5024
  16242.306  16242.290  0.500  -0.258157  21.1328  27.3573  19.4364
  16249.277  16249.250  0.500  -0.256423  21.1032  27.2716  19.2842
  16256.371  16256.370  0.500  -0.256492  21.0368  27.1877  19.2115
  16263.714  16263.670  0.500  -0.258526  21.0286  27.2324  19.3408
  16271.144  16271.150  0.500  -0.259712  21.0007  27.2286  19.4219
  16278.826  16278.790  0.500  -0.260512  20.961  27.1988  19.3947
  16286.596  16286.600  0.500  -0.261067  20.9248  27.167  19.3361
  16294.618  16294.590  0.500  -0.260939  20.8878  27.1154  19.3178
  16302.764  16302.750  0.500  -0.260569  20.8419  27.0459  19.2836
  16311.082  16311.070  0.500  -0.260902  20.8094  27.0127  19.2358
  16319.595  16319.570  0.500  -0.262337  20.7707  27.0012  19.2268
  16328.280  16328.250  0.500  -0.263405  20.7318  26.9794  19.2316
  16337.115  16337.090  0.500  -0.264487  20.6937  26.959  19.2864
  16346.100  16346.100  0.500  -0.265143  20.6493  26.9188  19.2644
  16355.306  16355.290  0.500  -0.264856  20.5985  26.8449  19.1859
  16364.687  16364.650  0.500  -0.265097  20.5592  26.8  19.1452
  16374.172  16374.170  0.500  -0.265794  20.4254  26.6442  19.0458
  16383.892  16383.870  0.500  -0.266934  20.4694  26.7321  19.1469
  16393.754  16393.750  0.500  -0.267710  20.4334  26.7057  19.1417
  16403.839  16403.790  0.500  -0.268698  20.349  26.6218  19.099
  16414.008  16414.000  0.500  -0.269459  20.3303  26.6176  19.1199
  16424.437  16424.390  0.500  -0.269707  20.2817  26.5605  19.0718
  16434.987  16434.950  0.500  -0.270260  20.2318  26.5098  19.0047
  16445.656  16445.680  0.500  -0.270887  20.1452  26.4129  18.9628
  16456.637  16456.580  0.500  -0.271685  20.1336  26.4188  19.0047
  16467.691  16467.650  0.500  -0.272423  20.0932  26.3852  18.9947
  16478.928  16478.890  0.500  -0.273404  20.041  26.3425  18.9709
  16490.334  16490.310  0.500  -0.274178  19.9848  26.289  18.9376
  16501.923  16501.890  0.500  -0.274815  19.9336  26.2384  18.9131
  16513.637  16513.650  0.500  -0.275450  19.8783  26.1822  18.8749
  16525.642  16525.580  0.500  -0.276209  19.8209  26.1264  18.8515
  16537.701  16537.680  0.500  -0.276964  19.7729  26.0828  18.8355
  16549.970  16549.950  0.500  -0.277762  19.7051  26.0142  18.8067
  16562.437  16562.390  0.500  -0.278684  19.6547  25.9715  18.7899
  16575.044  16575.010  0.500  -0.279634  19.6043  25.9295  18.7638
  16587.839  16587.790  0.500  -0.280406  19.5497  25.8773  18.7373
  16600.774  16600.750  0.500  -0.280961  19.4906  25.8134  18.707
  16613.948  16613.880  0.500  -0.281878  19.4284  25.7546  18.681
  16627.227  16627.180  0.500  -0.282802  19.3683  25.6986  18.65
  16640.758  16640.650  0.500  -0.283724  19.3098  25.6446  18.6247
  16654.458  16654.300  0.500  -0.284474  19.2514  25.5864  18.5984
  16668.180  16668.110  0.500  -0.285407  19.175  25.5085  18.5592
  16682.181  16682.100  0.500  -0.286263  19.1093  25.443  18.5179
  16696.254  16696.260  0.500  -0.287151  19.027  25.3559  18.47
  16710.634  16710.590  0.500  -0.287925  18.8393  25.1252  18.3175
  16725.087  16725.090  0.500  -0.288897  18.9868  25.3465  18.4904
  16739.798  16739.760  0.500  -0.289746  18.9063  25.2604  18.4476
  16744.712  16744.690  0.500  -0.290105  18.8775  25.231  18.4284