File: xdidata/Sr/Sr-StrontiumHydroxide.xdi
# XDI/1.0 BlueSky/1.10.0 BMM/2023-1.0-py310-tiled
# Beamline.name: BMM (06BM) -- Beamline for Materials Measurement (NIST)
# Beamline.xray_source: NSLS-II three-pole wiggler
# Beamline.collimation: paraboloid mirror, 5 nm Rh on 30 nm Pt
# Beamline.focusing: not in use
# Beamline.harmonic_rejection: flat mirror, Pt stripe, pitch = 7.0 mrad relative to beam
# Beamline.software: Bluesky 1.10.0, Ophyd 1.7.0, DataBroker 2.0.0b13, Python 3.10.8, 2023-1.0-py310-tiled
# Detector.I0: 10 cm N2
# Detector.I1: 25 cm N2
# Detector.I2: 25 cm N2
# Element.symbol: Sr
# Element.edge: K
# Element.reference: Sr
# Element.reference_material: SrTiO3
# Facility.name: NSLS-II
# Facility.energy: 3.0
# Facility.current: 400.6
# Facility.mode: top-off
# Facility.GUP: 301027
# Facility.SAF: 310583
# Facility.cycle: 2023-2
# Mono.name: Si(111)
# Mono.d_spacing: 3.13519
# Mono.encoder_resolution: 0.0000050 deg/ct
# Mono.angle_offset: 16.0754 deg
# Mono.scan_mode: pseudo channel cut
# Mono.scan_type: step
# Mono.direction: forward in energy
# Sample.name: Sr(OH)2.8H2O
# Sample.prep: Powder in PEG pellet
# Sample.x: 142.033 mm
# Sample.y: 113.475 mm
# Sample.SDD_position: 205.000 mm
# Scan.experimenters: Bruce Ravel
# Scan.edge_energy: 16104.6
# Scan.start_time: 2023-06-01T11:15:59
# Scan.end_time: 2023-06-01T11:23:18
# Scan.transient_id: 79113
# Scan.uid: 890eabcf-edfb-48fc-87f2-88892370da46
# Scan.plot_hint: ln(I0/It)  --  ln($5/$6)
# Column.1: energy eV
# Column.2: requested_energy eV
# Column.3: measurement_time seconds
# Column.4: xmu
# Column.5: I0 nA
# Column.6: It nA
# Column.7: Ir nA
# ///////////
# Sigma Aldrich; 95%; 415219; Lot STBG0528V
# -----------
# energy  requested_energy  measurement_time  xmu  I0  It  Ir
  15904.537  15904.600  0.500  -0.224343  22.3718  27.9983  22.8618
  15934.636  15934.600  0.500  -0.226368  22.2396  27.8893  22.7972
  15964.739  15964.600  0.500  -0.228255  22.0864  27.7495  22.7034
  15994.709  15994.600  0.500  -0.229709  21.9466  27.6139  22.6103
  16024.591  16024.600  0.500  -0.230514  21.6402  27.2503  22.3328
  16054.608  16054.600  0.500  -0.229048  21.6404  27.2107  22.3102
  16076.562  16076.600  0.500  -0.223503  21.4819  26.862  22.0187
  16082.530  16082.600  0.500  -0.220032  21.5058  26.7987  21.9584
  16088.570  16088.600  0.500  -0.214053  21.4787  26.6054  21.7868
  16094.536  16094.600  0.500  -0.203665  21.4422  26.2857  21.495
  16096.011  16096.100  0.500  -0.199664  21.4382  26.1759  21.3971
  16097.543  16097.600  0.500  -0.194690  21.4299  26.0359  21.2682
  16099.041  16099.100  0.500  -0.188887  21.4108  25.8623  21.1108
  16100.563  16100.600  0.500  -0.181534  21.3922  25.6504  20.9138
  16102.084  16102.100  0.500  -0.171791  21.3871  25.3956  20.6807
  16103.583  16103.600  0.500  -0.158563  21.3959  25.0723  20.3775
  16105.060  16105.100  0.500  -0.139718  21.3948  24.6029  19.9466
  16106.571  16106.600  0.500  -0.109308  21.3856  23.8558  19.2518
  16108.049  16108.100  0.500  -0.057623  21.3717  22.6393  18.1314
  16109.572  16109.600  0.500  0.037913  21.3676  20.5727  16.2763
  16111.106  16111.100  0.500  0.198250  21.3619  17.5203  13.6127
  16112.596  16112.600  0.500  0.411296  21.3567  14.155  10.6972
  16114.086  16114.100  0.500  0.645759  21.3501  11.1931  8.112111
  16115.587  16115.600  0.500  0.870522  21.3416  8.936437  6.209905
  16117.055  16117.100  0.500  1.136013  21.3384  6.851696  4.565988
  16118.602  16118.600  0.500  1.411561  21.3294  5.199297  3.298144
  16120.082  16120.100  0.500  1.533055  21.3196  4.602380  2.866380
  16121.595  16121.600  0.500  1.503346  21.2992  4.736622  3.030329
  16123.087  16123.100  0.500  1.395555  21.2557  5.264937  3.510563
  16124.613  16124.600  0.500  1.255104  21.2354  6.053056  4.179129
  16126.093  16126.100  0.500  1.111095  21.2627  6.999633  4.934992
  16127.574  16127.600  0.500  0.984004  21.2766  7.953441  5.659903
  16129.067  16129.100  0.500  0.902132  21.2685  8.628704  6.142989
  16131.597  16131.590  0.500  0.855542  21.2502  9.032477  6.367080
  16134.709  16134.720  0.500  0.832045  21.2391  9.242385  6.509025
  16137.983  16138.020  0.500  0.825761  21.2216  9.292978  6.572324
  16141.463  16141.490  0.500  0.868704  21.1998  8.893199  6.263145
  16145.127  16145.130  0.500  0.916714  21.1513  8.456923  5.872534
  16149.078  16148.940  0.500  0.971175  21.1526  8.009170  5.474212
  16152.929  16152.930  0.500  1.036553  21.1899  7.515513  5.123628
  16157.033  16157.090  0.500  1.060711  21.1731  7.330311  5.095532
  16161.402  16161.410  0.500  1.039363  21.1515  7.480865  5.199300
  16165.877  16165.910  0.500  0.998547  21.1288  7.784174  5.342119
  16170.560  16170.580  0.500  0.945513  21.1004  8.197085  5.699735
  16175.383  16175.430  0.500  0.910437  21.0251  8.459418  5.960544
  16180.428  16180.440  0.500  0.888447  21.0516  8.658396  6.126440
  16185.624  16185.630  0.500  0.898976  21.0277  8.558000  6.046691
  16191.008  16190.980  0.500  0.924377  20.9992  8.332011  5.813684
  16196.488  16196.510  0.500  0.935219  20.9702  8.230810  5.708165
  16202.212  16202.210  0.500  0.938394  20.9439  8.194433  5.674459
  16208.079  16208.080  0.500  0.942663  20.9213  8.150695  5.659301
  16214.134  16214.120  0.500  0.945762  20.8885  8.112764  5.683849
  16220.321  16220.340  0.500  0.934368  20.8629  8.195655  5.770481
  16226.743  16226.720  0.500  0.912284  20.837  8.368270  5.909503
  16233.297  16233.280  0.500  0.893104  20.8081  8.518488  6.016609
  16240.006  16240.010  0.500  0.887766  20.7771  8.551325  6.021397
  16246.907  16246.910  0.500  0.888282  20.7487  8.535208  5.980107
  16253.986  16253.980  0.500  0.892241  20.6982  8.480795  5.929606
  16261.223  16261.220  0.500  0.899632  20.6874  8.413948  5.901928
  16268.628  16268.640  0.500  0.898906  20.6567  8.407597  5.930073
  16276.226  16276.220  0.500  0.893893  20.6196  8.434637  5.955990
  16283.959  16283.980  0.500  0.900500  20.5857  8.365340  5.895988
  16291.920  16291.910  0.500  0.898518  20.5499  8.367360  5.893341
  16299.970  16300.010  0.500  0.890920  20.5063  8.413301  5.939375
  16308.273  16308.280  0.500  0.882278  20.4462  8.461444  5.961623
  16316.725  16316.720  0.500  0.875883  20.427  8.507741  5.996672
  16325.349  16325.340  0.500  0.871935  20.3837  8.523268  6.008043
  16334.111  16334.120  0.500  0.875355  20.3468  8.478810  5.996525
  16343.081  16343.080  0.500  0.880344  20.2935  8.414500  5.962942
  16352.213  16352.210  0.500  0.877412  20.2539  8.422750  5.960170
  16361.555  16361.510  0.500  0.870951  20.2098  8.458885  5.983586
  16370.978  16370.980  0.500  0.865764  20.1301  8.469357  5.989327
  16380.647  16380.620  0.500  0.863323  20.1151  8.483693  6.011396
  16390.434  16390.440  0.500  0.861481  20.0673  8.479156  6.014758
  16400.468  16400.420  0.500  0.856947  20.0099  8.493306  6.029311
  16410.585  16410.580  0.500  0.852301  19.9689  8.515374  6.053328
  16420.916  16420.910  0.500  0.849441  19.9005  8.510516  6.049765
  16431.437  16431.410  0.500  0.849880  19.8658  8.491974  6.030320
  16442.079  16442.080  0.500  0.849200  19.7879  8.464417  6.011212
  16452.947  16452.920  0.500  0.846130  19.758  8.477623  6.035550
  16463.961  16463.940  0.500  0.841984  19.7031  8.489161  6.047131
  16475.157  16475.120  0.500  0.838649  19.7198  8.524765  6.075665
  16486.510  16486.480  0.500  0.835704  19.6622  8.524935  6.081115
  16498.023  16498.010  0.500  0.832598  19.6066  8.527240  6.084276
  16509.731  16509.710  0.500  0.830177  19.5485  8.522599  6.083340
  16521.599  16521.580  0.500  0.827655  19.4919  8.519367  6.085715
  16533.640  16533.630  0.500  0.824069  19.4228  8.519678  6.088666
  16545.842  16545.840  0.500  0.821353  19.358  8.514353  6.093546
  16558.255  16558.230  0.500  0.817842  19.3113  8.523663  6.104723
  16570.795  16570.780  0.500  0.814596  19.2471  8.522958  6.108350
  16583.511  16583.510  0.500  0.811343  19.1829  8.522219  6.109737
  16596.440  16596.410  0.500  0.808397  19.1233  8.520820  6.113162
  16609.546  16609.490  0.500  0.804489  19.0569  8.524455  6.121188
  16622.746  16622.730  0.500  0.801216  18.9968  8.525427  6.126741
  16636.136  16636.140  0.500  0.797619  18.9271  8.524778  6.128950
  16649.767  16649.730  0.500  0.794230  18.8596  8.523201  6.133357
  16663.494  16663.490  0.500  0.790904  18.7945  8.522087  6.136914
  16677.450  16677.420  0.500  0.787371  18.717  8.516989  6.138566
  16691.516  16691.520  0.500  0.783781  18.633  8.509236  6.137331
  16705.801  16705.790  0.500  0.780007  18.4953  8.478274  6.118939
  16720.319  16720.230  0.500  0.777703  17.8259  8.190281  5.916800
  16734.900  16734.850  0.500  0.773300  18.5299  8.551335  6.183806
  16749.653  16749.630  0.500  0.769367  18.4268  8.537233  6.177046
  16764.605  16764.590  0.500  0.765661  18.3453  8.531067  6.178652
  16779.732  16779.720  0.500  0.762020  18.2652  8.524781  6.178571
  16795.073  16795.020  0.500  0.758451  18.1768  8.513847  6.176007
  16810.540  16810.500  0.500  0.754473  18.0961  8.509833  6.176731
  16826.173  16826.140  0.500  0.750902  17.9407  8.466933  6.150988
  16841.971  16841.950  0.500  0.747152  18.0169  8.534842  6.204619
  16857.962  16857.940  0.500  0.743481  17.9439  8.531556  6.209698
  16874.121  16874.100  0.500  0.739949  17.8319  8.508282  6.199035
  16890.460  16890.430  0.500  0.735656  17.7673  8.513911  6.204069
  16906.970  16906.930  0.500  0.731818  17.6833  8.506277  6.205177
  16923.662  16923.600  0.500  0.728390  17.3935  8.395594  6.129387
  16940.464  16940.450  0.500  0.724329  17.446  8.455183  6.177956
  16957.475  16957.460  0.500  0.720590  17.506  8.516059  6.228292