File: xdidata/Data/Ni/Ni-K-NickelBorateHydrate.xdi
# XDI/1.0 BlueSky/1.10.0 BMM/2023-1.0-py310-tiled
# Beamline.name: BMM (06BM) -- Beamline for Materials Measurement (NIST)
# Beamline.xray_source: NSLS-II three-pole wiggler
# Beamline.collimation: paraboloid mirror, 5 nm Rh on 30 nm Pt
# Beamline.focusing: not in use
# Beamline.harmonic_rejection: flat mirror, Pt stripe, pitch = 7.0 mrad relative to beam
# Beamline.software: Bluesky 1.10.0, Ophyd 1.7.0, DataBroker 2.0.0b13, Python 3.10.8, 2023-1.0-py310-tiled
# Detector.I0: 10 cm N2
# Detector.I1: 25 cm N2
# Detector.I2: 25 cm N2
# Element.symbol: Ni
# Element.edge: K
# Element.reference: Ni
# Element.reference_material: Ni foil
# Facility.name: NSLS-II
# Facility.energy: 3.0
# Facility.current: 399.8
# Facility.mode: top-off
# Facility.GUP: 301027
# Facility.SAF: 310583
# Facility.cycle: 2023-2
# Mono.name: Si(111)
# Mono.d_spacing: 3.13519
# Mono.encoder_resolution: 0.0000050 deg/ct
# Mono.angle_offset: 16.0754 deg
# Mono.scan_mode: pseudo channel cut
# Mono.scan_type: step
# Mono.direction: forward in energy
# Sample.name: NiBO3 + nH2O
# Sample.prep: powder on tape
# Sample.x: 117.785 mm
# Sample.y: 114.695 mm
# Sample.SDD_position: 205.000 mm
# Scan.experimenters: Bruce Ravel
# Scan.edge_energy: 8332.8
# Scan.start_time: 2023-06-23T15:42:00
# Scan.end_time: 2023-06-23T15:50:07
# Scan.transient_id: 84855
# Scan.uid: db81a6c5-816c-4e51-a8b5-16cc3e344a60
# Scan.plot_hint: ln(I0/It)  --  ln($5/$6)
# Column.1: energy eV
# Column.2: requested_energy eV
# Column.3: measurement_time seconds
# Column.4: xmu
# Column.5: I0 nA
# Column.6: It nA
# Column.7: Ir nA
# ///////////
# BMM standards collection
# -----------
# energy  requested_energy  measurement_time  xmu  I0  It  Ir
  8132.804  8132.800  0.500  1.702598  134.026  24.4208  9.380261
  8162.881  8162.800  0.500  1.677180  133.388  24.9302  9.677578
  8192.870  8192.800  0.500  1.651861  132.733  25.444  9.978101
  8222.818  8222.800  0.500  1.627020  132.082  25.956  10.2809
  8252.808  8252.800  0.500  1.602439  131.353  26.4552  10.5803
  8282.807  8282.800  0.500  1.578594  130.631  26.9447  10.873
  8304.799  8304.800  0.500  1.561726  130.151  27.3023  11.0738
  8310.787  8310.800  0.500  1.557579  130.003  27.3845  11.1161
  8316.793  8316.800  0.500  1.553331  129.846  27.4679  11.1468
  8322.793  8322.800  0.500  1.549449  129.688  27.5411  11.1482
  8323.675  8323.700  0.500  1.548833  129.593  27.5379  11.136
  8324.575  8324.600  0.500  1.548512  129.644  27.5577  11.133
  8325.481  8325.500  0.500  1.548186  129.622  27.5619  11.12
  8326.388  8326.400  0.500  1.547695  129.571  27.5647  11.1009
  8327.282  8327.300  0.500  1.547371  129.572  27.5737  11.0774
  8328.183  8328.200  0.500  1.547057  129.511  27.5695  11.0397
  8329.075  8329.100  0.500  1.546773  129.478  27.5702  10.9847
  8329.986  8330.000  0.500  1.546767  129.464  27.5674  10.8869
  8330.896  8330.900  0.500  1.547061  129.443  27.5549  10.6778
  8331.801  8331.800  0.500  1.548644  129.374  27.4967  10.164
  8332.694  8332.700  0.500  1.552420  129.844  27.4926  9.361875
  8333.590  8333.600  0.500  1.551873  129.737  27.4849  8.600838
  8334.501  8334.500  0.500  1.548953  129.683  27.5538  8.078394
  8335.398  8335.400  0.500  1.548609  129.584  27.5423  7.737963
  8336.294  8336.300  0.500  1.549669  129.573  27.5106  7.538661
  8337.200  8337.200  0.500  1.552497  129.568  27.4319  7.377901
  8338.103  8338.100  0.500  1.558365  129.565  27.2709  7.139296
  8338.995  8339.000  0.500  1.568096  129.501  26.9934  6.810393
  8339.898  8339.900  0.500  1.583233  129.459  26.5793  6.488763
  8340.799  8340.800  0.500  1.606627  129.389  25.9506  6.154874
  8341.703  8341.700  0.500  1.642352  129.373  25.0368  5.734835
  8342.595  8342.600  0.500  1.688562  129.331  23.8984  5.227440
  8343.496  8343.500  0.500  1.739022  129.273  22.7122  4.683683
  8344.395  8344.400  0.500  1.793284  129.272  21.5125  4.140077
  8345.300  8345.300  0.500  1.860656  129.216  20.1021  3.589612
  8346.196  8346.200  0.500  1.940236  129.188  18.5604  3.082277
  8347.101  8347.100  0.500  2.021359  129.152  17.1094  2.651504
  8348.000  8348.000  0.500  2.079467  129.074  16.1338  2.376648
  8348.896  8348.900  0.500  2.114017  129.028  15.5804  2.238390
  8349.796  8349.800  0.500  2.138766  128.974  15.1932  2.169162
  8350.699  8350.700  0.500  2.156647  128.861  14.9109  2.140825
  8351.605  8351.600  0.500  2.150072  128.772  14.9988  2.179825
  8352.497  8352.500  0.500  2.106803  128.714  15.655  2.302964
  8353.403  8353.400  0.500  2.041482  128.645  16.7028  2.474212
  8354.301  8354.300  0.500  1.984278  128.61  17.6812  2.607203
  8355.193  8355.200  0.500  1.946830  128.595  18.3538  2.658760
  8356.088  8356.100  0.500  1.921084  128.588  18.8315  2.657940
  8356.992  8357.000  0.500  1.898987  128.517  19.2416  2.651834
  8357.801  8357.800  0.500  1.880401  128.55  19.6076  2.675841
  8361.115  8360.810  0.500  1.834995  128.499  20.5103  2.894190
  8363.970  8364.000  0.500  1.850379  128.379  20.1783  2.953588
  8367.346  8367.360  0.500  1.845088  128.257  20.2661  3.074862
  8370.870  8370.880  0.500  1.812464  128.238  20.935  3.192371
  8374.574  8374.580  0.500  1.786741  128.135  21.4633  3.146080
  8378.440  8378.450  0.500  1.787464  128.052  21.4339  2.933883
  8382.498  8382.500  0.500  1.810615  127.939  20.9249  2.736973
  8386.707  8386.710  0.500  1.843734  127.803  20.2216  2.770854
  8391.084  8391.090  0.500  1.873421  127.666  19.6091  2.898140
  8395.643  8395.650  0.500  1.890438  127.552  19.2611  2.956820
  8400.378  8400.380  0.500  1.886359  127.434  19.322  2.972344
  8405.293  8405.280  0.500  1.864735  127.313  19.7255  3.054474
  8410.351  8410.350  0.500  1.842010  127.173  20.1568  3.057794
  8415.595  8415.590  0.500  1.826287  127.063  20.4585  3.033414
  8421.012  8421.010  0.500  1.817842  126.911  20.6072  2.947113
  8426.596  8426.590  0.500  1.809524  126.789  20.7594  2.836492
  8432.360  8432.350  0.500  1.801897  126.652  20.8958  2.771087
  8438.289  8438.280  0.500  1.800392  126.475  20.898  2.891271
  8444.388  8444.380  0.500  1.798219  126.332  20.9198  3.087224
  8450.653  8450.650  0.500  1.788597  126.125  21.0874  3.251055
  8457.102  8457.090  0.500  1.780463  125.953  21.2307  3.473484
  8463.719  8463.700  0.500  1.784563  125.759  21.1111  3.446270
  8470.505  8470.490  0.500  1.791424  125.564  20.9344  3.263094
  8477.455  8477.450  0.500  1.790287  125.338  20.9204  3.209591
  8484.586  8484.570  0.500  1.785212  125.746  21.0953  3.239788
  8491.896  8491.870  0.500  1.775879  125.515  21.2539  3.000718
  8499.365  8499.350  0.500  1.760259  125.338  21.5581  2.953989
  8507.009  8506.990  0.500  1.743760  125.077  21.8712  3.093254
  8514.808  8514.800  0.500  1.734459  124.753  22.0183  3.451337
  8522.808  8522.790  0.500  1.732302  124.429  22.0086  3.813501
  8530.964  8530.950  0.500  1.729972  108.993  19.3233  3.271240
  8539.293  8539.270  0.500  1.725646  124.504  22.1689  3.527467
  8547.792  8547.770  0.500  1.719630  124.176  22.2439  3.505430
  8556.466  8556.450  0.500  1.711589  123.942  22.3813  3.591705
  8565.313  8565.290  0.500  1.700077  123.659  22.5887  3.687504
  8574.320  8574.300  0.500  1.693191  123.433  22.7032  3.528906
  8583.515  8583.490  0.500  1.687043  123.122  22.7857  3.470034
  8592.875  8592.850  0.500  1.679987  113.561  21.165  3.349032
  8602.391  8602.370  0.500  1.673499  122.114  22.9074  3.876350
  8612.084  8612.070  0.500  1.666066  121.152  22.8965  3.958486
  8621.959  8621.950  0.500  1.656058  123.318  23.5402  4.073090
  8631.998  8631.990  0.500  1.643475  122.41  23.6627  4.098823
  8642.212  8642.200  0.500  1.633652  120.314  23.4872  4.017672
  8652.606  8652.590  0.500  1.626497  121.331  23.8557  4.053526
  8663.163  8663.150  0.500  1.618884  121.135  23.9993  4.049301
  8673.890  8673.880  0.500  1.612670  120.81  24.084  4.054511
  8684.803  8684.780  0.500  1.605863  120.5  24.1863  4.186608
  8695.871  8695.850  0.500  1.597243  120.049  24.3043  4.303886
  8707.111  8707.090  0.500  1.586284  113.906  23.3149  4.150299
  8718.524  8718.510  0.500  1.576102  119.819  24.7762  4.524124
  8730.110  8730.090  0.500  1.567097  119.381  24.9088  4.568587
  8741.888  8741.850  0.500  1.557952  118.982  25.0537  4.595043
  8753.807  8753.780  0.500  1.548977  118.685  25.2165  4.613275
  8765.899  8765.880  0.500  1.540610  118.31  25.348  4.630221
  8778.164  8778.150  0.500  1.531703  117.991  25.5057  4.667257
  8790.604  8790.590  0.500  1.521643  117.601  25.6785  4.774129
  8803.227  8803.210  0.500  1.511545  117.238  25.8591  4.889613
  8816.014  8815.990  0.500  1.502048  116.848  26.0191  4.944738
  8828.971  8828.950  0.500  1.492881  116.451  26.1694  5.025681
  8842.097  8842.080  0.500  1.483713  116.067  26.3233  5.118472
  8855.399  8855.380  0.500  1.474704  115.698  26.477  5.198004
  8868.880  8868.850  0.500  1.465158  115.248  26.6271  5.249017
  8882.526  8882.500  0.500  1.455118  114.881  26.8101  5.280974
  8896.331  8896.310  0.500  1.444745  114.492  26.9979  5.315667
  8910.320  8910.300  0.500  1.434624  113.444  27.0228  5.391241
  8924.480  8924.460  0.500  1.424619  111.731  26.8825  5.437117
  8938.818  8938.790  0.500  1.414774  113.28  27.5248  5.613595
  8953.318  8953.290  0.500  1.405104  112.606  27.627  5.679832
  8967.990  8967.960  0.500  1.395369  112.339  27.8311  5.773896
  8982.826  8982.800  0.500  1.385236  111.584  27.9255  5.845127
  8997.866  8997.820  0.500  1.374968  111.498  28.1921  5.936481
  9013.048  9013.000  0.500  1.364784  110.892  28.3258  5.996534
  9028.340  9028.360  0.500  1.354653  110.605  28.5402  6.075340
  9043.913  9043.890  0.500  1.344297  110.023  28.6856  6.152703
  9059.616  9059.590  0.500  1.334015  109.594  28.8689  6.250440
  9075.482  9075.460  0.500  1.323915  109.069  29.0225  6.339773
  9091.529  9091.510  0.500  1.313559  108.553  29.1856  6.430797
  9107.695  9107.720  0.500  1.303077  108.084  29.3659  6.525142
  9124.117  9124.110  0.500  1.292619  107.607  29.5435  6.622687
  9140.673  9140.670  0.500  1.282182  106.877  29.6511  6.694816
  9157.373  9157.400  0.500  1.271780  105.625  29.61  6.726920
  9174.280  9174.300  0.500  1.261398  106.367  30.1292  6.894536
  9185.688  9185.660  0.500  1.254615  106.266  30.3055  6.973250