File: xdidata/Data/Ni/Ni-K-NickelFoil.xdi
# XDI/1.0 BlueSky/1.10.0 BMM/2023-1.0-py310-tiled
# Beamline.name: BMM (06BM) -- Beamline for Materials Measurement (NIST)
# Beamline.xray_source: NSLS-II three-pole wiggler
# Beamline.collimation: paraboloid mirror, 5 nm Rh on 30 nm Pt
# Beamline.focusing: not in use
# Beamline.harmonic_rejection: flat mirror, Pt stripe, pitch = 7.0 mrad relative to beam
# Beamline.software: Bluesky 1.10.0, Ophyd 1.7.0, DataBroker 2.0.0b13, Python 3.10.8, 2023-1.0-py310-tiled
# Detector.I0: 10 cm N2
# Detector.I1: 25 cm N2
# Detector.I2: 25 cm N2
# Element.symbol: Ni
# Element.edge: K
# Element.reference: Ni
# Element.reference_material: Ni foil
# Facility.name: NSLS-II
# Facility.energy: 3.0
# Facility.current: 400.5
# Facility.mode: top-off
# Facility.GUP: 301027
# Facility.SAF: 310583
# Facility.cycle: 2023-2
# Mono.name: Si(111)
# Mono.d_spacing: 3.13519
# Mono.encoder_resolution: 0.0000050 deg/ct
# Mono.angle_offset: 16.0754 deg
# Mono.scan_mode: pseudo channel cut
# Mono.scan_type: step
# Mono.direction: forward in energy
# Sample.name: Ni foil
# Sample.prep: reference foil
# Sample.x: 109.138 mm
# Sample.y: 153.150 mm
# Sample.SDD_position: 205.000 mm
# Scan.experimenters: Bruce Ravel
# Scan.edge_energy: 8332.8
# Scan.start_time: 2023-05-28T14:55:46
# Scan.end_time: 2023-05-28T15:03:42
# Scan.transient_id: 78777
# Scan.uid: 93081eaf-854b-48c6-ac5d-88cebc1c2845
# Scan.plot_hint: ln(It/Ir)  --  ln($6/$7)
# Column.1: energy eV
# Column.2: requested_energy eV
# Column.3: measurement_time seconds
# Column.4: xmu
# Column.5: I0 nA
# Column.6: It nA
# Column.7: Ir nA
# ///////////
# standard reference foil
# -----------
# energy  requested_energy  measurement_time  xmu  I0  It  Ir
  8132.790  8132.800  0.500  1.064226  135.462  167.946  57.9406
  8162.847  8162.800  0.500  1.052685  135.013  168.247  58.7182
  8192.873  8192.800  0.500  1.041153  134.589  168.512  59.4929
  8222.818  8222.800  0.500  1.030078  134.176  168.845  60.274
  8252.820  8252.800  0.500  1.019258  133.754  169.099  61.0217
  8282.816  8282.800  0.500  1.009163  133.267  169.312  61.7182
  8304.769  8304.800  0.500  1.003338  133.734  170.517  62.5206
  8310.781  8310.800  0.500  1.002444  133.645  170.551  62.5891
  8316.778  8316.800  0.500  1.002401  133.548  170.538  62.5869
  8322.784  8322.800  0.500  1.004805  133.44  170.58  62.452
  8323.669  8323.700  0.500  1.005590  133.398  170.58  62.4029
  8324.578  8324.600  0.500  1.006610  133.371  170.556  62.3306
  8325.484  8325.500  0.500  1.007968  133.34  170.522  62.2336
  8326.379  8326.400  0.500  1.009618  133.338  170.557  62.1437
  8327.279  8327.300  0.500  1.012170  133.306  170.522  61.9729
  8328.183  8328.200  0.500  1.015516  133.278  170.506  61.76
  8329.087  8329.100  0.500  1.020658  133.256  170.553  61.4601
  8329.983  8330.000  0.500  1.029822  133.246  170.51  60.8841
  8330.896  8330.900  0.500  1.049812  133.203  170.484  59.6699
  8331.798  8331.800  0.500  1.099016  133.161  170.491  56.8074
  8332.685  8332.700  0.500  1.181687  133.13  170.43  52.2811
  8333.587  8333.600  0.500  1.264859  133.059  170.39  48.0976
  8334.492  8334.500  0.500  1.328602  132.983  170.347  45.1159
  8335.404  8335.400  0.500  1.370363  132.926  170.296  43.2578
  8336.294  8336.300  0.500  1.394301  132.905  170.313  42.2387
  8337.200  8337.200  0.500  1.412833  132.877  170.254  41.4487
  8338.100  8338.100  0.500  1.440652  132.847  170.245  40.3094
  8338.992  8339.000  0.500  1.477602  132.81  170.228  38.8434
  8339.889  8339.900  0.500  1.510310  132.764  170.214  37.5903
  8340.802  8340.800  0.500  1.539384  132.734  170.188  36.5075
  8341.703  8341.700  0.500  1.574987  132.688  170.159  35.2247
  8342.598  8342.600  0.500  1.622526  132.656  170.127  33.583
  8343.499  8343.500  0.500  1.681901  132.609  170.072  31.6367
  8344.398  8344.400  0.500  1.751311  132.568  170.07  29.515
  8345.300  8345.300  0.500  1.825753  132.552  170.069  27.3976
  8346.196  8346.200  0.500  1.898520  132.907  170.556  25.5476
  8347.104  8347.100  0.500  1.966154  132.915  170.555  23.8767
  8348.003  8348.000  0.500  2.014494  132.886  170.558  22.7504
  8348.899  8348.900  0.500  2.037262  132.847  170.526  22.2341
  8349.796  8349.800  0.500  2.042359  132.773  170.439  22.1097
  8350.696  8350.700  0.500  2.035760  132.698  170.342  22.2435
  8351.599  8351.600  0.500  2.023477  132.609  170.268  22.5085
  8352.503  8352.500  0.500  2.011337  132.518  170.167  22.7699
  8353.400  8353.400  0.500  2.005007  132.465  170.146  22.9118
  8354.304  8354.300  0.500  2.010765  132.44  170.159  22.782
  8355.199  8355.200  0.500  2.029599  132.427  170.154  22.3563
  8356.097  8356.100  0.500  2.055634  132.422  170.143  21.7803
  8356.995  8357.000  0.500  2.078462  132.382  170.136  21.2878
  8357.795  8357.800  0.500  2.087212  132.379  170.177  21.1075
  8360.818  8360.810  0.500  2.054960  132.343  170.208  21.8033
  8364.018  8364.000  0.500  2.015237  132.336  170.272  22.6954
  8367.373  8367.360  0.500  1.980489  132.286  170.279  23.4988
  8370.888  8370.880  0.500  1.976471  132.245  170.309  23.5975
  8374.577  8374.580  0.500  2.016414  132.202  170.378  22.6828
  8378.465  8378.450  0.500  2.085445  132.145  170.43  21.1763
  8382.513  8382.500  0.500  2.128407  132.071  170.403  20.2825
  8386.725  8386.710  0.500  2.079942  131.96  170.368  21.2854
  8391.105  8391.090  0.500  2.005106  131.833  170.295  22.9295
  8395.658  8395.650  0.500  1.968205  131.741  170.307  23.7931
  8400.399  8400.380  0.500  1.965963  131.638  170.308  23.8467
  8405.296  8405.280  0.500  1.959725  131.555  170.34  24.0004
  8410.366  8410.350  0.500  1.979923  131.475  170.359  23.5232
  8415.607  8415.590  0.500  2.002963  131.388  170.345  22.9855
  8421.025  8421.010  0.500  2.038724  131.291  170.337  22.1769
  8426.599  8426.590  0.500  2.084342  131.207  170.376  21.1929
  8432.345  8432.350  0.500  2.113169  131.099  170.401  20.5937
  8438.289  8438.280  0.500  2.069924  130.975  170.396  21.5032
  8444.391  8444.380  0.500  2.005481  130.866  170.421  22.9379
  8450.653  8450.650  0.500  1.961623  130.728  170.385  23.9612
  8457.102  8457.090  0.500  1.902312  130.597  170.376  25.4241
  8463.706  8463.700  0.500  1.905049  130.444  170.314  25.3454
  8470.512  8470.490  0.500  1.951283  130.297  170.277  24.1949
  8477.467  8477.450  0.500  1.965923  130.115  170.211  23.8341
  8484.586  8484.570  0.500  1.965237  129.958  170.168  23.8443
  8491.887  8491.870  0.500  2.049112  129.785  170.187  21.9285
  8499.350  8499.350  0.500  2.078226  129.624  170.142  21.2936
  8507.003  8506.990  0.500  2.045685  129.444  170.058  21.9871
  8514.808  8514.800  0.500  1.942258  129.262  170.039  24.3802
  8522.802  8522.790  0.500  1.842756  129.035  169.898  26.9084
  8530.967  8530.950  0.500  1.866811  113.875  150.1  23.2078
  8539.281  8539.270  0.500  1.928244  128.649  169.779  24.6864
  8547.780  8547.770  0.500  1.936879  128.524  169.837  24.4826
  8556.470  8556.450  0.500  1.918667  128.349  169.817  24.9295
  8565.294  8565.290  0.500  1.901495  128.143  169.749  25.3512
  8574.323  8574.300  0.500  1.950351  127.908  169.646  24.1277
  8583.505  8583.490  0.500  1.970029  127.6  169.446  23.6297
  8592.860  8592.850  0.500  1.930870  114.537  152.303  22.0872
  8602.381  8602.370  0.500  1.864020  127.066  169.171  26.2296
  8612.093  8612.070  0.500  1.842686  126.011  167.964  26.6041
  8621.978  8621.950  0.500  1.841481  128.065  170.946  27.109
  8632.017  8631.990  0.500  1.840242  127.677  170.694  27.1025
  8642.212  8642.200  0.500  1.852473  124.367  166.442  26.1063
  8652.609  8652.590  0.500  1.858540  127.104  170.363  26.5595
  8663.170  8663.150  0.500  1.865274  126.85  170.236  26.3618
  8673.897  8673.880  0.500  1.867147  126.604  170.174  26.3027
  8684.806  8684.780  0.500  1.838723  126.323  170.042  27.0402
  8695.867  8695.850  0.500  1.816250  126.019  169.866  27.6261
  8707.111  8707.090  0.500  1.810398  119.15  160.857  26.3145
  8718.531  8718.510  0.500  1.784547  125.551  169.744  28.4954
  8730.107  8730.090  0.500  1.779824  125.3  169.656  28.6156
  8741.871  8741.850  0.500  1.779680  125.028  169.494  28.5923
  8753.797  8753.780  0.500  1.782023  124.747  169.405  28.5104
  8765.892  8765.880  0.500  1.783278  124.463  169.232  28.4456
  8778.174  8778.150  0.500  1.780919  124.161  169.075  28.4862
  8790.608  8790.590  0.500  1.764651  123.835  168.925  28.9278
  8803.230  8803.210  0.500  1.747455  123.513  168.749  29.3989
  8816.021  8815.990  0.500  1.742156  123.206  168.58  29.5254
  8828.971  8828.950  0.500  1.731292  122.88  168.413  29.8184
  8842.100  8842.080  0.500  1.718395  122.585  168.258  30.1777
  8855.405  8855.380  0.500  1.708601  122.259  168.095  30.4452
  8868.866  8868.850  0.500  1.704161  121.913  167.914  30.5477
  8882.509  8882.500  0.500  1.704643  121.584  167.691  30.4925
  8896.331  8896.310  0.500  1.704477  121.223  167.498  30.4624
  8910.320  8910.300  0.500  1.690751  120.351  166.539  30.7066
  8924.470  8924.460  0.500  1.676979  118.738  164.623  30.7742
  8938.812  8938.790  0.500  1.668025  120.261  166.989  31.4973
  8953.307  8953.290  0.500  1.659873  119.68  166.47  31.6565
  8967.983  8967.960  0.500  1.650334  119.49  166.477  31.9612
  8982.822  8982.800  0.500  1.640994  118.789  165.795  32.129
  8997.880  8997.820  0.500  1.634563  118.715  165.969  32.3702
  9013.020  9013.000  0.500  1.628981  118.287  165.679  32.4945
  9028.385  9028.360  0.500  1.623159  118.003  165.544  32.6576
  9043.917  9043.890  0.500  1.614923  117.474  165.071  32.8337
  9059.623  9059.590  0.500  1.605192  117.179  164.932  33.1268
  9075.528  9075.460  0.500  1.596110  116.765  164.638  33.3694
  9091.539  9091.510  0.500  1.586940  116.327  164.31  33.6097
  9107.791  9107.720  0.500  1.578058  115.892  163.992  33.8439
  9124.071  9124.110  0.500  1.569029  115.487  163.714  34.093
  9140.745  9140.670  0.500  1.561410  114.941  163.219  34.2498
  9157.477  9157.400  0.500  1.554878  112.873  160.534  33.9073
  9174.269  9174.300  0.500  1.547191  114.265  162.825  34.6566
  9185.637  9185.660  0.500  1.541501  114.092  162.777  34.844