File: xdidata/Data/Ti/Ti-K-Bi2Ce2Ti3O12.xdi
# XDI/1.0 BlueSky/1.5.0
# Beamline.name: 6BM
# Beamline.xray_source: NSLS-II three-pole wiggler
# Beamline.collimation: paraboloid mirror, 5 nm Rh on 30 nm Pt
# Beamline.focusing: not in use
# Beamline.harmonic_rejection: flat mirror, Si stripe, pitch = 7.0 mrad relative to beam
# Detector.i0: 10 cm N2
# Detector.i1: 25 cm N2
# Detector.i2: 25 cm N2
# Element.symbol: Ti
# Element.edge: K
# Facility.name: NSLS-II
# Facility.energy: 3.0
# Facility.current: 220.6
# Facility.mode: top-off
# Facility.gup: 301027
# Facility.saf: 304156
# Mono.name: Si(111)
# Mono.d_spacing: 3.13526
# Mono.encoder_resolution: 0.0000050 deg/ct
# Mono.angle_offset: 16.0571 deg
# Mono.scan_mode: pseudo channel cut
# Mono.scan_type: step
# Mono.direction: forward in energy
# Sample.name: Bi2Ce2Ti3O12
# Sample.prep: Powder in polyethylene glycol pellet
# Sample.x_position: -113.290 mm
# Sample.y_position: 117.505 mm
# Sample.wheel_position: 195.000 mm
# Scan.experimenters: Bruce Ravel, Martin Stennett
# Scan.edge_energy: 4966.0
# Scan.start_time: 2019-05-30T21:00:12
# Scan.end_time: 2019-05-30T21:44:13
# Scan.transient_id: 9858
# Scan.uid: 8b242636-752d-41d1-91aa-f0724dad7b0c
# Scan.plot_hint: (DTC1 + DTC2 + DTC3 + DTC4) / I0  --  ($8+$9+$10+$11) / $5
# Scan.sequence: merge of 3 scans
# Column.1: energy eV
# Column.2: requested_energy eV
# Column.3: measurement_time seconds
# Column.4: mutrans
# Column.5: i0
# Column.6: itrans
# Column.7: irefer
# /////
#  sample disk prepared by Martin
# -----
# energy   requested_energy   measurement_time   mutrans   i0   itrans   irefer
4766 4766 0.500000 72.5989 10.7248 0.014755 0.003293
4796.01 4796 0.500000 61.7307 11.4679 0.017574 0.003527
4826.01 4826 0.500000 52.7619 12.244 0.021215 0.003914
4856 4856 0.500000 43.5355 12.9942 0.025379 0.004429
4886.01 4886 0.500000 33.3346 13.7686 0.030209 0.005072
4916 4916 0.500000 27.9636 14.5521 0.036060 0.005889
4938 4938 0.500000 20.9626 15.1069 0.040805 0.006591
4943.99 4944 0.500000 21.9571 15.2434 0.041969 0.006792
4950.01 4950 0.500000 21.4549 15.371 0.043468 0.006973
4956 4956 0.500000 20.9334 15.4987 0.044712 0.007186
4956.74 4956.75 0.500000 20.5486 15.5115 0.044869 0.007229
4957.49 4957.5 0.500000 20.8637 15.5249 0.045048 0.007304
4958.25 4958.25 0.500000 20.2213 15.541 0.044998 0.007270
4959 4959 0.500000 22.539 15.5531 0.045318 0.007224
4959.75 4959.75 0.500000 21.2072 15.569 0.045594 0.007407
4960.5 4960.5 0.500000 20.9244 15.5865 0.045388 0.007278
4961.25 4961.25 0.500000 22.2345 15.6014 0.045605 0.007229
4962 4962 0.500000 23.0572 15.6175 0.046182 0.007437
4962.75 4962.75 0.500000 22.7169 15.6335 0.046094 0.007265
4963.5 4963.5 0.500000 23.5452 15.6491 0.046326 0.007283
4964.25 4964.25 0.500000 25.4702 15.6663 0.046360 0.006921
4965 4965 0.500000 25.3381 15.7155 0.046675 0.006052
4965.75 4965.75 0.500000 27.1636 15.7287 0.046729 0.005603
4966.5 4966.5 0.500000 33.3505 15.7427 0.046808 0.005852
4967.25 4967.25 0.500000 49.3877 15.7476 0.046579 0.006022
4968 4968 0.500000 57.9236 15.8344 0.046835 0.006004
4968.75 4968.75 0.500000 101.713 15.8509 0.046484 0.005728
4969.5 4969.5 0.500000 149.129 15.8556 0.045647 0.005457
4970.25 4970.25 0.500000 108.033 15.8652 0.046506 0.005730
4971 4971 0.500000 90.587 15.899 0.046985 0.005430
4971.75 4971.75 0.500000 87.4933 15.9218 0.047167 0.005328
4972.5 4972.5 0.500000 99.794 15.935 0.047277 0.005236
4973.25 4973.25 0.500000 103.286 15.9462 0.047248 0.005065
4974 4974 0.500000 95.3411 15.9553 0.047566 0.004662
4974.75 4974.75 0.500000 89.0846 15.9624 0.047881 0.004707
4975.5 4975.5 0.500000 88.2131 15.9644 0.048042 0.004442
4976.25 4976.25 0.500000 97.5695 15.962 0.047875 0.004102
4977 4977 0.500000 122.111 15.9629 0.047460 0.004078
4977.75 4977.75 0.500000 161.001 15.9698 0.047008 0.004043
4978.5 4978.5 0.500000 200.943 15.9796 0.046467 0.004034
4979.25 4979.25 0.500000 255.907 15.9848 0.045639 0.003864
4980 4980 0.500000 310.474 15.9785 0.044722 0.003723
4980.75 4980.75 0.500000 375.548 15.9706 0.043373 0.003471
4981.5 4981.5 0.500000 462.04 15.9679 0.042314 0.003565
4982.25 4982.25 0.500000 537.418 15.9748 0.041391 0.003381
4983 4983 0.500000 584.321 15.9831 0.040353 0.003357
4983.75 4983.75 0.500000 596.826 15.9836 0.040380 0.003407
4984.5 4984.5 0.500000 590.902 15.9793 0.040377 0.003479
4985.25 4985.25 0.500000 584.143 15.9837 0.040915 0.003692
4986 4986 0.500000 584.862 15.9889 0.040927 0.003404
4986.75 4986.75 0.500000 597.765 15.9845 0.041025 0.003759
4987.5 4987.5 0.500000 606.943 15.9776 0.040899 0.003476
4988.25 4988.25 0.500000 618.855 15.9841 0.041006 0.003635
4989 4989 0.500000 610.307 16.0164 0.041069 0.003598
4989.75 4989.75 0.500000 622.371 16.0519 0.041151 0.003600
4990.5 4990.5 0.500000 623.586 16.0937 0.041329 0.003679
4991.25 4991.25 0.500000 618.867 16.1306 0.041639 0.003565
4992 4992 0.500000 610.808 16.1639 0.042006 0.003585
4992.75 4992.75 0.500000 608.236 16.1878 0.042311 0.003650
4993.5 4993.5 0.500000 602.147 16.238 0.042625 0.003896
4994.25 4994.25 0.500000 608.184 16.2546 0.042514 0.003606
4995 4995 0.500000 616.093 16.2661 0.042850 0.003828
4995.75 4995.75 0.500000 619.008 16.3981 0.043121 0.003757
4998.19 4998.18 0.730000 628.518 23.9029 0.063078 0.005295
5001.59 5001.58 0.760000 635.046 24.9944 0.066958 0.005475
5005.17 5005.16 0.800000 601.971 26.4962 0.072793 0.005755
5008.92 5008.91 0.840000 556.051 28.0288 0.079253 0.006518
5012.83 5012.83 0.880000 506.257 29.5429 0.086339 0.007314
5016.93 5016.93 0.910000 505.48 30.7174 0.091268 0.007872
5021.19 5021.19 0.950000 504.347 32.2655 0.097252 0.008288
5025.64 5025.63 0.990000 497.714 33.8273 0.104338 0.008997
5030.24 5030.24 1.030000 499.392 35.3977 0.110516 0.009236
5035.02 5035.01 1.060000 512.191 36.6298 0.116083 0.009352
5039.96 5039.97 1.100000 520.599 38.2215 0.122689 0.009347
5045.09 5045.09 1.140000 530.101 39.8273 0.129589 0.010063
5050.38 5050.38 1.180000 546.408 41.4543 0.136937 0.011194
5055.84 5055.84 1.210000 566.449 42.7513 0.142469 0.011936
5061.48 5061.48 1.250000 578.594 44.4245 0.150718 0.013106
5067.28 5067.29 1.290000 584.225 46.1156 0.159340 0.013648
5073.27 5073.27 1.330000 570.663 47.8202 0.169532 0.014152
5079.42 5079.42 1.360000 561.329 49.1664 0.178703 0.014797
5085.74 5085.74 1.400000 554.752 50.863 0.189253 0.014744
5092.23 5092.23 1.440000 552.768 52.5671 0.199689 0.015483
5098.9 5098.9 1.480000 555.849 54.3009 0.210846 0.016824
5105.74 5105.74 1.510000 554.461 55.8621 0.222153 0.018647
5112.74 5112.74 1.550000 559.811 57.8151 0.235162 0.019819
5119.92 5119.92 1.590000 562.695 59.6301 0.248329 0.020786
5127.27 5127.27 1.630000 564.729 61.4712 0.261360 0.021808
5134.79 5134.79 1.660000 577.442 62.9889 0.273886 0.022910
5142.49 5142.49 1.700000 589.645 64.9074 0.288393 0.023810
5150.35 5150.35 1.740000 588.881 66.8569 0.304383 0.024924
5158.39 5158.39 1.780000 588.063 68.8492 0.322378 0.026590
5166.6 5166.6 1.810000 591.562 70.4696 0.338356 0.028655
5174.98 5174.98 1.850000 589.204 72.4838 0.357505 0.030653
5183.53 5183.53 1.890000 592.551 74.545 0.377529 0.032678
5192.25 5192.25 1.930000 599.06 76.5987 0.398310 0.034810
5201.14 5201.14 1.960000 597.683 78.229 0.417830 0.036139
5210.21 5210.21 2.000000 601.922 80.3642 0.441072 0.037630
5219.45 5219.45 2.040000 605.514 82.4921 0.466034 0.040347
5228.85 5228.85 2.080000 607.947 84.5492 0.491032 0.042973
5238.43 5238.43 2.110000 612.96 86.31 0.515175 0.045521
5248.18 5248.18 2.150000 623.649 88.656 0.543888 0.048898
5258.11 5258.11 2.190000 627.536 91.4579 0.577201 0.052092
5268.2 5268.2 2.230000 629.489 93.9109 0.610503 0.055621
5278.47 5278.47 2.260000 635.962 94.6586 0.633818 0.058024
5288.9 5288.9 2.300000 638.62 98.6216 0.680666 0.062450
5299.51 5299.51 2.340000 642.94 101.113 0.719529 0.066475
5310.29 5310.29 2.380000 644.078 103.748 0.761864 0.071506
5321.24 5321.24 2.410000 651.614 105.768 0.800779 0.075697
5332.36 5332.36 2.450000 656.732 108.101 0.844805 0.080907
5343.66 5343.66 2.490000 660.822 110.625 0.891559 0.086318
5355.12 5355.12 2.530000 664.583 112.078 0.933008 0.091765
5366.76 5366.76 2.560000 673.399 115.221 0.989023 0.097794
5378.57 5378.57 2.600000 677.416 117.198 1.037910 0.103321
5390.55 5390.55 2.640000 685.514 119.792 1.095398 0.110968
5402.7 5402.7 2.680000 689.091 121.591 1.146289 0.116826
5415.02 5415.02 2.710000 697.298 122.308 1.190333 0.123610
5427.52 5427.52 2.750000 705.616 123.189 1.236728 0.130366
5440.18 5440.18 2.790000 712.732 124.059 1.285126 0.137068
5453.02 5453.02 2.830000 718.451 125.194 1.338783 0.144774
5466.03 5466.03 2.860000 722.252 126.156 1.393109 0.152022
5479.21 5479.21 2.900000 732.695 127.804 1.457110 0.161149
5492.56 5492.56 2.940000 741.92 129.747 1.527738 0.171300
5506.08 5506.08 2.980000 748.434 131.972 1.605421 0.182178
5519.78 5519.78 3.010000 756.745 134.158 1.685916 0.193859
5533.64 5533.64 3.050000 762.014 137.381 1.784610 0.208145
5547.68 5547.68 3.090000 774.571 140.507 1.886685 0.222537
5561.89 5561.89 3.130000 779.125 143.887 1.997010 0.238469
5576.27 5576.27 3.160000 788.485 146.479 2.102476 0.254465
5590.82 5590.82 3.200000 795.968 149.606 2.220301 0.272417
5605.54 5605.54 3.240000 803.988 152.415 2.338079 0.290504
5620.44 5620.44 3.280000 810.342 155.346 2.464316 0.310422
5635.5 5635.5 3.310000 821.542 156.637 2.570236 0.328674
5650.74 5650.74 3.350000 826.25 159.092 2.699893 0.350568
5666.15 5666.15 3.390000 838.931 161.991 2.844378 0.374777
5681.73 5681.73 3.430000 848.159 165.338 2.999788 0.400317
5697.48 5697.48 3.460000 858.666 168.067 3.147934 0.426207
5708.08 5708.08 3.490000 869.116 170.564 3.254099 0.445312