File: xdidata/Data/Ti/Ti-K-Anatase.xdi
# XDI/1.0 BlueSky/1.5.0
# Beamline.name: 6BM
# Beamline.xray_source: NSLS-II three-pole wiggler
# Beamline.collimation: paraboloid mirror, 5 nm Rh on 30 nm Pt
# Beamline.focusing: not in use
# Beamline.harmonic_rejection: flat mirror, Si stripe, pitch = 7.0 mrad relative to beam
# Detector.i0: 10 cm N2
# Detector.i1: 25 cm N2
# Detector.i2: 25 cm N2
# Element.symbol: Ti
# Element.edge: K
# Facility.name: NSLS-II
# Facility.energy: 3.0
# Facility.current: 219.5
# Facility.mode: top-off
# Facility.gup: 301027
# Facility.saf: 304156
# Mono.name: Si(111)
# Mono.d_spacing: 3.13526
# Mono.encoder_resolution: 0.0000050 deg/ct
# Mono.angle_offset: 16.0571 deg
# Mono.scan_mode: pseudo channel cut
# Mono.scan_type: step
# Mono.direction: forward in energy
# Sample.name: TiO2 anatase
# Sample.prep: Powder in polyethylene glycol pellet
# Sample.x_position: -97.532 mm
# Sample.y_position: 117.543 mm
# Sample.wheel_position: -420.000 mm
# Scan.experimenters: Bruce Ravel, Martin Stennett
# Scan.edge_energy: 4966.0
# Scan.start_time: 2019-05-29T19:00:19
# Scan.end_time: 2019-05-29T19:43:36
# Scan.transient_id: 9752
# Scan.uid: f32ba38a-0473-4f12-8442-7691134ab519
# Scan.plot_hint: ln(I0/It)  --  ln($5/$6)
# Scan.sequence: merge of 3 scans
# Column.1: energy eV
# Column.2: requested_energy eV
# Column.3: measurement_time seconds
# Column.4: mutrans
# Column.5: i0
# Column.6: itrans
# Column.7: irefer
# /////
#  sample disk prepared by Martin
# -----
# energy   requested_energy   measurement_time   mutrans   i0   itrans   irefer
4765.99 4766 0.500000 3.603884 10.8222 0.294585 0.024139
4796.01 4796 0.500000 3.530579 11.5618 0.338622 0.028565
4826 4826 0.500000 3.452964 12.3285 0.390215 0.034006
4856 4856 0.500000 3.376981 13.0854 0.446867 0.040350
4886 4886 0.500000 3.302953 13.8147 0.508025 0.047602
4916 4916 0.500000 3.230773 14.5445 0.574896 0.055826
4938 4938 0.500000 3.179523 15.0827 0.627522 0.062812
4943.99 4944 0.500000 3.166854 15.2156 0.641122 0.064276
4950 4950 0.500000 3.153598 15.3305 0.654585 0.066287
4956.01 4956 0.500000 3.141734 15.4755 0.668663 0.067750
4956.74 4956.75 0.500000 3.139998 15.4862 0.670283 0.067841
4957.49 4957.5 0.500000 3.139257 15.4988 0.671329 0.068235
4958.24 4958.25 0.500000 3.137170 15.5113 0.673273 0.068473
4959 4959 0.500000 3.136241 15.5247 0.674478 0.068400
4959.74 4959.75 0.500000 3.134889 15.5375 0.675951 0.068787
4960.5 4960.5 0.500000 3.134248 15.5495 0.676905 0.068741
4961.24 4961.25 0.500000 3.132571 15.5627 0.678615 0.068929
4962 4962 0.500000 3.131957 15.5784 0.679720 0.068495
4962.75 4962.75 0.500000 3.131546 15.5947 0.680711 0.068027
4963.5 4963.5 0.500000 3.131330 15.6081 0.681443 0.066870
4964.25 4964.25 0.500000 3.131275 15.6243 0.682189 0.063297
4965 4965 0.500000 3.133251 15.6353 0.681322 0.051593
4965.75 4965.75 0.500000 3.137641 15.6451 0.678756 0.046692
4966.5 4966.5 0.500000 3.156449 15.6555 0.666542 0.050223
4967.25 4967.25 0.500000 3.227354 15.6647 0.621410 0.049178
4968 4968 0.500000 3.206647 15.6781 0.634842 0.048633
4968.75 4968.75 0.500000 3.203782 15.69 0.637167 0.046358
4969.5 4969.5 0.500000 3.256305 15.6932 0.604677 0.042560
4970.25 4970.25 0.500000 3.305328 15.7025 0.576073 0.040017
4971 4971 0.500000 3.300701 15.7366 0.579988 0.039622
4971.75 4971.75 0.500000 3.265768 15.7541 0.601277 0.039599
4972.5 4972.5 0.500000 3.295446 15.7678 0.584231 0.036175
4973.25 4973.25 0.500000 3.301308 15.7749 0.581045 0.033858
4974 4974 0.500000 3.270359 15.7825 0.599613 0.032926
4974.76 4974.75 0.500000 3.250790 15.7895 0.611742 0.031876
4975.5 4975.5 0.500000 3.264448 15.7896 0.603427 0.029362
4976.25 4976.25 0.500000 3.309169 15.7982 0.577246 0.027091
4977 4977 0.500000 3.374821 15.8193 0.541561 0.024480
4977.75 4977.75 0.500000 3.451426 15.8252 0.501746 0.021952
4978.5 4978.5 0.500000 3.525690 15.8335 0.466022 0.020257
4979.25 4979.25 0.500000 3.559626 15.8351 0.450492 0.019211
4980 4980 0.500000 3.590074 15.825 0.436731 0.018565
4980.75 4980.75 0.500000 3.697469 15.8163 0.392189 0.016751
4981.5 4981.5 0.500000 3.876230 15.8139 0.327764 0.014285
4982.25 4982.25 0.500000 4.040592 15.8579 0.278900 0.012523
4983 4983 0.500000 4.219754 15.8634 0.233301 0.010562
4983.75 4983.75 0.500000 4.432984 15.8589 0.188332 0.008826
4984.5 4984.5 0.500000 4.622030 15.8569 0.155935 0.007826
4985.25 4985.25 0.500000 4.754135 15.8932 0.136949 0.007188
4986.01 4986 0.500000 4.766883 15.8945 0.135237 0.007210
4986.75 4986.75 0.500000 4.681404 15.8881 0.147238 0.007790
4987.5 4987.5 0.500000 4.609010 15.8835 0.158228 0.008212
4988.25 4988.25 0.500000 4.570204 15.8908 0.164568 0.008350
4989 4989 0.500000 4.544144 15.923 0.169243 0.008690
4989.75 4989.75 0.500000 4.524195 15.9573 0.173026 0.009052
4990.5 4990.5 0.500000 4.500477 15.9957 0.177614 0.008675
4991.25 4991.25 0.500000 4.474541 16.0312 0.182683 0.009298
4992 4992 0.500000 4.473729 16.062 0.183184 0.009424
4992.75 4992.75 0.500000 4.502304 16.0831 0.178246 0.009054
4993.5 4993.5 0.500000 4.542604 16.0996 0.171384 0.008806
4994.25 4994.25 0.500000 4.554206 16.1141 0.169565 0.008851
4995 4995 0.500000 4.545347 16.124 0.171182 0.008654
4995.75 4995.75 0.500000 4.549217 16.1457 0.170746 0.008548
4998.19 4998.18 0.730000 4.616378 23.5814 0.233188 0.011472
5001.59 5001.58 0.760000 4.624504 24.6521 0.241803 0.011889
5005.17 5005.16 0.800000 4.475624 26.1296 0.297463 0.014512
5008.92 5008.91 0.840000 4.272783 27.6277 0.385226 0.018446
5012.84 5012.83 0.880000 4.113956 29.1184 0.475889 0.022940
5016.94 5016.93 0.910000 4.107115 30.2695 0.498099 0.024741
5021.19 5021.19 0.950000 4.074443 31.7821 0.540341 0.027351
5025.64 5025.63 0.990000 4.081853 33.3179 0.562274 0.028629
5030.25 5030.24 1.030000 4.099494 34.9228 0.579059 0.028731
5035.02 5035.01 1.060000 4.097489 36.1277 0.600242 0.028446
5039.98 5039.97 1.100000 4.106247 37.6932 0.620791 0.028687
5045.09 5045.09 1.140000 4.133739 39.2571 0.629013 0.029754
5050.38 5050.38 1.180000 4.136212 40.8384 0.652733 0.032862
5055.84 5055.84 1.210000 4.164020 42.2014 0.656018 0.034778
5061.48 5061.48 1.250000 4.183686 43.8568 0.668478 0.035729
5067.29 5067.29 1.290000 4.146883 45.64 0.721735 0.038900
5073.27 5073.27 1.330000 4.097370 47.338 0.786590 0.042626
5079.42 5079.42 1.360000 4.073126 48.7 0.829069 0.043873
5085.74 5085.74 1.400000 4.031735 50.4173 0.894578 0.045403
5092.23 5092.23 1.440000 3.963342 52.1727 0.991269 0.048617
5098.9 5098.9 1.480000 3.939122 53.9151 1.049473 0.054579
5105.74 5105.74 1.510000 3.924727 55.3054 1.092144 0.060810
5112.74 5112.74 1.550000 3.895294 57.0976 1.161214 0.064788
5119.92 5119.92 1.590000 3.883009 58.9322 1.213340 0.067977
5127.27 5127.27 1.630000 3.885712 60.8179 1.248783 0.071403
5134.79 5134.79 1.660000 3.902511 62.3843 1.259613 0.072638
5142.49 5142.49 1.700000 3.909608 64.3521 1.290162 0.073400
5150.35 5150.35 1.740000 3.870494 66.3411 1.383075 0.077740
5158.39 5158.39 1.780000 3.821294 68.543 1.501056 0.086202
5166.6 5166.6 1.810000 3.783592 70.2246 1.596973 0.093978
5174.98 5174.98 1.850000 3.759772 72.2838 1.683431 0.102546
5183.53 5183.53 1.890000 3.743027 74.5709 1.766020 0.109305
5192.25 5192.25 1.930000 3.728129 76.6671 1.842914 0.115016
5201.14 5201.14 1.960000 3.701852 78.5201 1.937697 0.120772
5210.21 5210.21 2.000000 3.669086 80.7009 2.057859 0.128604
5219.45 5219.45 2.040000 3.644097 82.8884 2.167111 0.137218
5228.85 5228.85 2.080000 3.618360 85.0602 2.281874 0.146383
5238.43 5238.43 2.110000 3.596348 86.9232 2.383761 0.155745
5248.18 5248.18 2.150000 3.579771 88.6335 2.471285 0.165292
5258.11 5258.11 2.190000 3.564226 91.6134 2.594396 0.176789
5268.2 5268.2 2.230000 3.544452 94.2362 2.721965 0.187744
5278.47 5278.47 2.260000 3.519767 95.289 2.821164 0.196428
5288.9 5288.9 2.300000 3.490359 99.1955 3.024459 0.211832
5299.51 5299.51 2.340000 3.459623 102.091 3.209952 0.228431
5310.29 5310.29 2.380000 3.430608 104.931 3.396367 0.245185
5321.24 5321.24 2.410000 3.403056 107.234 3.567874 0.261040
5332.36 5332.36 2.450000 3.377257 109.647 3.743494 0.279118
5343.66 5343.66 2.490000 3.353234 112.301 3.927314 0.298373
5355.12 5355.12 2.530000 3.330152 114.247 4.088652 0.316376
5366.76 5366.76 2.560000 3.307879 117.008 4.281773 0.334675
5378.57 5378.57 2.600000 3.284263 118.824 4.452144 0.352382
5390.55 5390.55 2.640000 3.253758 120.687 4.662023 0.374987
5402.7 5402.7 2.680000 3.224935 122.195 4.858313 0.397074
5415.02 5415.02 2.710000 3.198395 122.878 5.016876 0.416983
5427.52 5427.52 2.750000 3.175240 123.815 5.173528 0.438357
5440.18 5440.18 2.790000 3.148791 124.991 5.362668 0.462049
5453.02 5453.02 2.830000 3.121718 126.609 5.581144 0.488992
5466.02 5466.03 2.860000 3.094855 128.277 5.808621 0.516150
5479.21 5479.21 2.900000 3.065421 130.695 6.094880 0.549970
5492.56 5492.56 2.940000 3.036827 133.03 6.383732 0.585163
5506.08 5506.08 2.980000 3.009281 135.765 6.696949 0.623434
5519.78 5519.78 3.010000 2.984986 138.051 6.977150 0.660430
5533.64 5533.64 3.050000 2.962034 141.067 7.295129 0.701998
5547.68 5547.68 3.090000 2.936942 143.93 7.632265 0.747310
5561.89 5561.89 3.130000 2.909943 146.907 8.003330 0.796048
5576.27 5576.27 3.160000 2.883228 149.359 8.357213 0.845053
5590.82 5590.82 3.200000 2.855559 152.462 8.770163 0.900702
5605.54 5605.54 3.240000 2.828749 155.305 9.176443 0.958159
5620.44 5620.44 3.280000 2.802838 158.561 9.614819 1.020563
5635.5 5635.5 3.310000 2.777116 159.892 9.948119 1.074513
5650.74 5650.74 3.350000 2.750214 162.66 10.3963 1.141911
5666.15 5666.15 3.390000 2.723065 165.768 10.8865 1.215874
5681.73 5681.73 3.430000 2.696591 169.216 11.4111 1.296171
5697.48 5697.48 3.460000 2.669875 171.535 11.8806 1.372550
5708.08 5708.08 3.490000 2.652069 173.473 12.2307 1.428838