File: xdidata/Data/Ti/Ti-K-Eu2Ti2O7.xdi
# XDI/1.0 BlueSky/1.5.0
# Beamline.name: 6BM
# Beamline.xray_source: NSLS-II three-pole wiggler
# Beamline.collimation: paraboloid mirror, 5 nm Rh on 30 nm Pt
# Beamline.focusing: not in use
# Beamline.harmonic_rejection: flat mirror, Si stripe, pitch = 7.0 mrad relative to beam
# Detector.i0: 10 cm N2
# Detector.i1: 25 cm N2
# Detector.i2: 25 cm N2
# Element.symbol: Ti
# Element.edge: K
# Facility.name: NSLS-II
# Facility.energy: 3.0
# Facility.current: 219.4
# Facility.mode: top-off
# Facility.gup: 301027
# Facility.saf: 304156
# Mono.name: Si(111)
# Mono.d_spacing: 3.13532
# Mono.encoder_resolution: 0.0000050 deg/ct
# Mono.angle_offset: 16.0577 deg
# Mono.scan_mode: pseudo channel cut
# Mono.scan_type: step
# Mono.direction: forward in energy
# Sample.name: Eu2Ti2O7 pyrochlore
# Sample.prep: powder on tape
# Sample.x_position: -97.500 mm
# Sample.y_position: 115.250 mm
# Sample.wheel_position: 0.000 mm
# Scan.experimenters: Bruce Ravel
# Scan.edge_energy: 4966.0
# Scan.start_time: 2019-06-16T20:39:25
# Scan.end_time: 2019-06-16T23:06:51
# Scan.transient_id: 10639
# Scan.uid: 13bb7c02-38da-4619-ae76-ad642b5872ee
# Scan.plot_hint: ln(I0/It)  --  ln($5/$6)
# Scan.sequence: merge of 9 scans
# Column.1: energy eV
# Column.2: requested_energy eV
# Column.3: measurement_time seconds
# Column.4: mutrans
# Column.5: i0
# Column.6: itrans
# Column.7: irefer
# /////
#  from Fatih Dogan, 1993
# -----
# energy   requested_energy   measurement_time   mutrans   i0   itrans   irefer
4765.99 4766 0.500000 3.298278 8.529566 0.315141 0.020981
4796.01 4796 0.500000 3.225389 9.168524 0.364360 0.025641
4826.01 4826 0.500000 3.153849 9.820939 0.419231 0.031060
4856 4856 0.500000 3.084695 10.4918 0.479926 0.037489
4886 4886 0.500000 3.016901 11.1691 0.546751 0.044792
4916 4916 0.500000 2.951204 11.8594 0.619970 0.053339
4938 4938 0.500000 2.903761 12.3707 0.678121 0.060182
4944 4944 0.500000 2.891020 12.5171 0.694940 0.062266
4950 4950 0.500000 2.878371 12.6318 0.710235 0.064090
4956 4956 0.500000 2.865879 12.7524 0.726029 0.065930
4956.75 4956.75 0.500000 2.864401 12.7763 0.728471 0.066236
4957.49 4957.5 0.500000 2.862789 12.7976 0.730858 0.066411
4958.24 4958.25 0.500000 2.861228 12.8147 0.732983 0.066610
4959 4959 0.500000 2.859774 12.842 0.735614 0.066792
4959.74 4959.75 0.500000 2.858315 12.8565 0.737517 0.066943
4960.49 4960.5 0.500000 2.857041 12.8715 0.739319 0.067080
4961.25 4961.25 0.500000 2.855479 12.8858 0.741301 0.067026
4962 4962 0.500000 2.854173 12.9025 0.743230 0.067026
4962.75 4962.75 0.500000 2.852593 12.9161 0.745188 0.066625
4963.5 4963.5 0.500000 2.851298 12.9309 0.747010 0.065608
4964.24 4964.25 0.500000 2.849996 12.9431 0.748683 0.061213
4965 4965 0.500000 2.848796 12.9695 0.751115 0.049407
4965.75 4965.75 0.500000 2.848031 12.9825 0.752442 0.046112
4966.5 4966.5 0.500000 2.848912 13.0094 0.753332 0.050953
4967.25 4967.25 0.500000 2.853798 13.0177 0.750147 0.052522
4968 4968 0.500000 2.853918 13.0343 0.751011 0.050938
4968.75 4968.75 0.500000 2.859870 13.0454 0.747206 0.047975
4969.5 4969.5 0.500000 2.865506 13.0505 0.743283 0.046041
4970.25 4970.25 0.500000 2.862337 13.0648 0.746458 0.045615
4971 4971 0.500000 2.855612 13.0925 0.753105 0.045198
4971.75 4971.75 0.500000 2.851911 13.1231 0.757648 0.043591
4972.5 4972.5 0.500000 2.856784 13.1377 0.754803 0.040723
4973.25 4973.25 0.500000 2.860974 13.1481 0.752251 0.038067
4974 4974 0.500000 2.863565 13.1555 0.750714 0.035809
4974.75 4974.75 0.500000 2.863657 13.1759 0.751814 0.033661
4975.5 4975.5 0.500000 2.861863 13.1803 0.753417 0.031974
4976.25 4976.25 0.500000 2.861745 13.1806 0.753520 0.030251
4977 4977 0.500000 2.866447 13.1859 0.750294 0.028537
4977.75 4977.75 0.500000 2.877327 13.1935 0.742585 0.027353
4978.5 4978.5 0.500000 2.886853 13.2004 0.735946 0.026346
4979.25 4979.25 0.500000 2.896106 13.2056 0.729433 0.025771
4980 4980 0.500000 2.909486 13.2158 0.720305 0.025023
4980.75 4980.75 0.500000 2.931177 13.2134 0.704718 0.024285
4981.5 4981.5 0.500000 2.963520 13.2258 0.682947 0.023303
4982.25 4982.25 0.500000 3.006431 13.2351 0.654708 0.022117
4983 4983 0.500000 3.050781 13.2437 0.626703 0.020921
4983.75 4983.75 0.500000 3.082797 13.2592 0.607725 0.020198
4984.5 4984.5 0.500000 3.103653 13.2592 0.595137 0.019910
4985.25 4985.25 0.500000 3.102480 13.2778 0.596670 0.020295
4986 4986 0.500000 3.082910 13.2825 0.608694 0.021104
4986.75 4986.75 0.500000 3.064105 13.292 0.620683 0.021875
4987.5 4987.5 0.500000 3.051041 13.2906 0.628774 0.022342
4988.25 4988.25 0.500000 3.041751 13.3009 0.635136 0.022659
4989 4989 0.500000 3.036875 13.3307 0.639669 0.022868
4989.75 4989.75 0.500000 3.039151 13.3645 0.639829 0.022914
4990.5 4990.5 0.500000 3.049556 13.3978 0.634779 0.022751
4991.25 4991.25 0.500000 3.059010 13.4295 0.630314 0.022665
4992 4992 0.500000 3.066621 13.4677 0.627301 0.022588
4992.75 4992.75 0.500000 3.069013 13.4882 0.626756 0.022620
4993.5 4993.5 0.500000 3.066878 13.5052 0.628894 0.022800
4994.25 4994.25 0.500000 3.063179 13.5168 0.631758 0.022799
4995 4995 0.500000 3.061528 13.5428 0.634019 0.022685
4995.75 4995.75 0.500000 3.060792 13.5526 0.634943 0.022257
4998.19 4998.18 0.730000 3.050410 19.808 0.937731 0.031047
5001.59 5001.58 0.760000 3.026448 20.7421 1.005731 0.032917
5005.17 5005.16 0.800000 3.028573 22.0029 1.064601 0.035742
5008.92 5008.91 0.840000 2.983784 23.2849 1.178232 0.042962
5012.83 5012.83 0.880000 2.942922 24.5767 1.295467 0.049017
5016.93 5016.93 0.910000 2.935047 25.5713 1.358556 0.052872
5021.19 5021.19 0.950000 2.923385 26.8774 1.444690 0.057964
5025.63 5025.63 0.990000 2.909454 28.1985 1.536962 0.061700
5030.24 5030.24 1.030000 2.908503 29.534 1.611295 0.063398
5035.02 5035.01 1.060000 2.900706 30.5946 1.682222 0.062014
5039.97 5039.97 1.100000 2.896304 32.0045 1.767509 0.063593
5045.09 5045.09 1.140000 2.893007 33.4304 1.852357 0.068762
5050.38 5050.38 1.180000 2.891190 34.8587 1.935027 0.076998
5055.83 5055.84 1.210000 2.879129 36.0861 2.027446 0.085414
5061.47 5061.48 1.250000 2.871885 37.588 2.127176 0.090556
5067.28 5067.29 1.290000 2.858581 39.1562 2.245608 0.098141
5073.26 5073.27 1.330000 2.839688 40.7267 2.380214 0.105450
5079.41 5079.42 1.360000 2.823888 41.9925 2.493287 0.107628
5085.73 5085.74 1.400000 2.805712 43.5977 2.636078 0.108221
5092.22 5092.23 1.440000 2.786529 45.2159 2.786866 0.112630
5098.9 5098.9 1.480000 2.773703 46.8443 2.924487 0.127420
5105.74 5105.74 1.510000 2.759143 48.1895 3.052594 0.142492
5112.74 5112.74 1.550000 2.744991 49.8912 3.205466 0.151168
5119.92 5119.92 1.590000 2.732349 51.614 3.358319 0.159905
5127.27 5127.27 1.630000 2.722474 53.319 3.503699 0.169711
5134.79 5134.79 1.660000 2.708274 54.7587 3.649757 0.178300
5142.49 5142.49 1.700000 2.695006 56.4996 3.816069 0.184374
5150.35 5150.35 1.740000 2.678696 58.2289 3.997571 0.191597
5158.39 5158.39 1.780000 2.660388 59.9974 4.195095 0.207642
5166.6 5166.6 1.810000 2.644029 61.422 4.365539 0.222933
5174.98 5174.98 1.850000 2.628706 63.1 4.554048 0.240916
5183.53 5183.53 1.890000 2.611116 64.8543 4.763713 0.258029
5192.25 5192.25 1.930000 2.594057 66.5758 4.974313 0.272408
5201.14 5201.14 1.960000 2.576129 67.9551 5.169207 0.284863
5210.21 5210.21 2.000000 2.558402 69.7171 5.398090 0.298298
5219.45 5219.45 2.040000 2.541534 71.4618 5.627294 0.315419
5228.85 5228.85 2.080000 2.525998 73.2852 5.861229 0.334617
5238.43 5238.43 2.110000 2.509656 74.7731 6.078798 0.354665
5248.18 5248.18 2.150000 2.492500 76.1224 6.295559 0.376956
5258.11 5258.11 2.190000 2.474528 78.5755 6.616263 0.405506
5268.2 5268.2 2.230000 2.455906 80.6718 6.920456 0.430652
5278.47 5278.47 2.260000 2.437837 81.5646 7.124614 0.447485
5288.9 5288.9 2.300000 2.420183 84.426 7.505940 0.477091
5299.51 5299.51 2.340000 2.402239 86.639 7.842123 0.507916
5310.29 5310.29 2.380000 2.383095 88.472 8.162822 0.537809
5321.24 5321.24 2.410000 2.364270 90.0388 8.465249 0.567973
5332.36 5332.36 2.450000 2.344813 92.0121 8.820755 0.603744
5343.66 5343.66 2.490000 2.325928 94.1655 9.199270 0.643193
5355.12 5355.12 2.530000 2.307309 96.0122 9.555980 0.680779
5366.76 5366.76 2.560000 2.289250 98.5791 9.990247 0.721093
5378.57 5378.57 2.600000 2.270441 101.135 10.4438 0.765071
5390.55 5390.55 2.640000 2.250790 103.783 10.93 0.815263
5402.7 5402.7 2.680000 2.230857 106.585 11.4511 0.869280
5415.02 5415.02 2.710000 2.211275 108.977 11.9396 0.923381
5427.52 5427.52 2.750000 2.191906 111.531 12.4583 0.981918
5440.18 5440.18 2.790000 2.172333 114.285 13.0184 1.046030
5453.02 5453.02 2.830000 2.152529 116.892 13.5817 1.109868
5466.03 5466.03 2.860000 2.132257 118.819 14.0882 1.171165
5479.21 5479.21 2.900000 2.111751 120.883 14.63 1.236698
5492.56 5492.56 2.940000 2.091357 122.584 15.1416 1.302607
5506.08 5506.08 2.980000 2.071295 123.919 15.6166 1.367255
5519.78 5519.78 3.010000 2.051408 124.443 15.9976 1.425834
5533.64 5533.64 3.050000 2.031628 125.168 16.4122 1.489886
5547.68 5547.68 3.090000 2.011806 125.623 16.8017 1.552773
5561.89 5561.89 3.130000 1.991954 126.412 17.2462 1.622291
5576.27 5576.27 3.160000 1.972006 126.583 17.6175 1.686632
5590.82 5590.82 3.200000 1.952199 127.462 18.0947 1.762567
5605.54 5605.54 3.240000 1.932554 128.635 18.6235 1.846445
5620.44 5620.44 3.280000 1.912808 130.166 19.2209 1.939872
5635.5 5635.5 3.310000 1.893252 130.539 19.6566 2.020603
5650.74 5650.74 3.350000 1.873117 132.527 20.362 2.131388
5666.15 5666.15 3.390000 1.852277 135.088 21.1925 2.258505
5681.73 5681.73 3.430000 1.832174 138.094 22.1041 2.397545
5697.48 5697.48 3.460000 1.812052 140.327 22.9181 2.530933
5713.4 5713.4 3.500000 1.791828 143.117 23.8511 2.681773
5729.5 5729.5 3.540000 1.771553 145.534 24.7507 2.832273
5745.77 5745.77 3.580000 1.751157 147.983 25.6858 2.992381
5762.2 5762.2 3.610000 1.730757 149.947 26.5632 3.151183
5778.81 5778.81 3.650000 1.710369 152.055 27.4914 3.320246
5795.59 5795.59 3.690000 1.690013 154.167 28.4463 3.497414
5812.54 5812.54 3.730000 1.669766 156.193 29.4097 3.680735
5818.23 5818.23 3.740000 1.662990 156.615 29.6897 3.737942