File: xdidata/Ta/Ta-L1-TantalumOxide.xdi
# XDI/1.0 BlueSky/1.10.0 BMM/2023-1.0-py310-tiled
# Beamline.name: BMM (06BM) -- Beamline for Materials Measurement (NIST)
# Beamline.xray_source: NSLS-II three-pole wiggler
# Beamline.collimation: paraboloid mirror, 5 nm Rh on 30 nm Pt
# Beamline.focusing: not in use
# Beamline.harmonic_rejection: flat mirror, Pt stripe, pitch = 7.0 mrad relative to beam
# Beamline.software: Bluesky 1.10.0, Ophyd 1.7.0, DataBroker 2.0.0b13, Python 3.10.8, 2023-1.0-py310-tiled
# Detector.I0: 10 cm N2
# Detector.I1: 25 cm N2
# Detector.I2: 25 cm N2
# Element.symbol: Ta
# Element.edge: L1
# Element.reference: Ta
# Element.reference_material: Ta2O5
# Facility.name: NSLS-II
# Facility.energy: 3.0
# Facility.current: 399.9
# Facility.mode: top-off
# Facility.GUP: 301027
# Facility.SAF: 310583
# Facility.cycle: 2023-2
# Mono.name: Si(111)
# Mono.d_spacing: 3.13519
# Mono.encoder_resolution: 0.0000050 deg/ct
# Mono.angle_offset: 16.0754 deg
# Mono.scan_mode: pseudo channel cut
# Mono.scan_type: step
# Mono.direction: forward in energy
# Sample.name: Ta2O5
# Sample.prep: PEG pellet
# Sample.x: 109.138 mm
# Sample.y: 153.150 mm
# Sample.SDD_position: 205.000 mm
# Scan.experimenters: Bruce Ravel
# Scan.edge_energy: 11681.5
# Scan.start_time: 2023-05-28T19:08:01
# Scan.end_time: 2023-05-28T19:16:03
# Scan.transient_id: 78938
# Scan.uid: 44f7c9a6-fd67-4f65-bfdf-29df0958bcaf
# Scan.plot_hint: ln(It/Ir)  --  ln($6/$7)
# Column.1: energy eV
# Column.2: requested_energy eV
# Column.3: measurement_time seconds
# Column.4: xmu
# Column.5: I0 nA
# Column.6: It nA
# Column.7: Ir nA
# ///////////
# sample courtesy Martin Stennett, University of Sheffield
# -----------
# energy  requested_energy  measurement_time  xmu  I0  It  Ir
  11481.482  11481.500  0.500  1.871179  69.3534  115.446  17.772
  11511.598  11511.500  0.500  1.862399  68.8186  114.695  17.8121
  11541.533  11541.500  0.500  1.852731  68.2637  113.916  17.8629
  11571.522  11571.500  0.500  1.844932  66.5124  111.126  17.5619
  11601.553  11601.500  0.500  1.835747  66.2282  110.774  17.6678
  11631.536  11631.500  0.500  1.828144  65.7931  110.182  17.7075
  11653.479  11653.500  0.500  1.823622  65.5018  109.784  17.7236
  11659.471  11659.500  0.500  1.822611  65.3229  109.522  17.6991
  11665.494  11665.500  0.500  1.821918  65.2949  109.503  17.7083
  11671.481  11671.500  0.500  1.822198  65.2096  109.373  17.6824
  11672.358  11672.400  0.500  1.822265  65.2006  109.353  17.6779
  11673.247  11673.300  0.500  1.822547  65.1877  109.351  17.6726
  11674.172  11674.200  0.500  1.822918  65.1728  109.334  17.6633
  11675.061  11675.100  0.500  1.823284  65.1618  109.316  17.6539
  11675.980  11676.000  0.500  1.823860  65.1477  109.298  17.6408
  11676.875  11676.900  0.500  1.824556  65.1223  109.252  17.6211
  11677.777  11677.800  0.500  1.825518  65.0048  109.067  17.5744
  11678.673  11678.700  0.500  1.826703  64.9708  108.989  17.541
  11679.586  11679.600  0.500  1.828735  65.1487  109.309  17.5568
  11680.482  11680.500  0.500  1.831339  65.2328  109.452  17.5341
  11681.402  11681.400  0.500  1.834783  65.24  109.463  17.4755
  11682.287  11682.300  0.500  1.839389  65.2268  109.46  17.3947
  11683.189  11683.200  0.500  1.844401  65.211  109.449  17.3061
  11684.104  11684.100  0.500  1.849411  65.1968  109.415  17.2142
  11684.988  11685.000  0.500  1.853439  65.1735  109.382  17.1398
  11685.879  11685.900  0.500  1.857000  65.1551  109.349  17.0738
  11686.782  11686.800  0.500  1.860174  65.1401  109.32  17.0151
  11687.685  11687.700  0.500  1.862925  65.1253  109.306  16.9662
  11688.601  11688.600  0.500  1.865305  65.1124  109.286  16.9228
  11689.498  11689.500  0.500  1.867846  65.0879  109.263  16.8763
  11690.413  11690.400  0.500  1.871360  65.0733  109.242  16.8139
  11691.293  11691.300  0.500  1.876021  65.0599  109.216  16.7318
  11692.197  11692.200  0.500  1.882119  65.0434  109.192  16.6264
  11693.089  11693.100  0.500  1.889615  65.0223  109.158  16.4971
  11693.993  11694.000  0.500  1.899174  65.0033  109.135  16.3367
  11694.886  11694.900  0.500  1.910095  64.9945  109.114  16.1561
  11695.796  11695.800  0.500  1.922834  64.9757  109.09  15.9481
  11696.712  11696.700  0.500  1.936111  64.9582  109.074  15.7355
  11697.617  11697.600  0.500  1.948834  64.9456  109.045  15.5324
  11698.492  11698.500  0.500  1.958644  64.9304  109.025  15.3779
  11699.391  11699.400  0.500  1.966015  64.9119  108.998  15.2612
  11700.284  11700.300  0.500  1.969838  64.8881  108.972  15.1993
  11701.201  11701.200  0.500  1.970985  64.8546  108.903  15.1723
  11702.101  11702.100  0.500  1.970622  64.6688  108.592  15.1345
  11703.000  11703.000  0.500  1.969913  64.4798  108.288  15.1028
  11703.912  11703.900  0.500  1.969774  64.5428  108.391  15.1193
  11704.806  11704.800  0.500  1.970547  64.7373  108.733  15.1553
  11705.688  11705.700  0.500  1.971243  64.7801  108.805  15.1548
  11706.481  11706.500  0.500  1.971526  64.7802  108.807  15.1508
  11709.516  11709.510  0.500  1.968367  64.7344  108.748  15.1904
  11712.767  11712.700  0.500  1.968228  64.6623  108.643  15.1778
  11716.050  11716.060  0.500  1.970156  64.6093  108.555  15.1363
  11719.575  11719.580  0.500  1.961960  64.5536  108.489  15.2516
  11723.268  11723.280  0.500  1.946586  64.4941  108.404  15.4758
  11727.132  11727.150  0.500  1.933614  64.4367  108.325  15.6664
  11731.207  11731.200  0.500  1.926310  64.3752  108.232  15.7677
  11735.418  11735.410  0.500  1.923791  64.0614  107.72  15.7328
  11739.781  11739.790  0.500  1.921968  64.2306  108.031  15.807
  11744.358  11744.350  0.500  1.920728  64.1618  107.928  15.8115
  11749.082  11749.080  0.500  1.921099  64.0843  107.806  15.7877
  11754.002  11753.980  0.500  1.922486  64.0242  107.742  15.7565
  11759.059  11759.050  0.500  1.923489  63.8888  107.526  15.7091
  11764.289  11764.290  0.500  1.925007  64.1015  107.908  15.741
  11769.717  11769.710  0.500  1.927726  63.8091  107.432  15.6291
  11775.289  11775.290  0.500  1.929687  63.934  107.669  15.6328
  11781.071  11781.050  0.500  1.929004  63.8669  107.585  15.6313
  11786.973  11786.980  0.500  1.924407  63.7936  107.471  15.6868
  11793.082  11793.080  0.500  1.920145  63.6997  107.346  15.7354
  11799.342  11799.350  0.500  1.916451  63.6015  107.197  15.7717
  11805.791  11805.790  0.500  1.913228  63.2021  106.553  15.7276
  11812.423  11812.400  0.500  1.910283  63.3816  106.882  15.8226
  11819.215  11819.190  0.500  1.907791  63.2704  106.727  15.8392
  11826.148  11826.150  0.500  1.905870  63.1674  106.573  15.8466
  11833.267  11833.270  0.500  1.903814  63.062  106.422  15.8568
  11840.601  11840.570  0.500  1.901171  62.9747  106.305  15.8813
  11848.061  11848.050  0.500  1.899445  62.6837  105.846  15.84
  11855.708  11855.690  0.500  1.898147  62.5626  105.676  15.8351
  11863.505  11863.500  0.500  1.896970  62.5291  105.65  15.8499
  11871.498  11871.490  0.500  1.895044  62.4032  105.465  15.8526
  11879.666  11879.650  0.500  1.892300  62.3897  105.475  15.8977
  11887.976  11887.970  0.500  1.889320  62.2252  105.228  15.9078
  11896.482  11896.470  0.500  1.886187  62.1204  105.085  15.9361
  11905.166  11905.150  0.500  1.883182  61.9902  104.897  15.9553
  11913.988  11913.990  0.500  1.880196  61.8743  104.736  15.9785
  11923.008  11923.000  0.500  1.877406  61.7695  104.585  16.0001
  11932.209  11932.190  0.500  1.874213  61.6236  104.383  16.0203
  11941.549  11941.550  0.500  1.870957  61.4946  104.197  16.0439
  11951.078  11951.070  0.500  1.868237  61.3628  104.007  16.0582
  11960.784  11960.770  0.500  1.865762  61.2292  103.813  16.0679
  11970.668  11970.650  0.500  1.863617  61.08  103.586  16.0673
  11980.706  11980.690  0.500  1.861019  60.9371  103.384  16.0777
  11990.924  11990.900  0.500  1.857884  60.7779  103.153  16.0921
  12001.298  12001.290  0.500  1.854527  60.6363  102.957  16.1156
  12011.872  12011.850  0.500  1.851105  60.4965  102.744  16.1373
  12022.585  12022.580  0.500  1.847761  60.3411  102.524  16.1567
  12033.487  12033.480  0.500  1.844362  60.1869  102.3  16.1764
  12044.567  12044.550  0.500  1.840741  59.9761  101.989  16.1857
  12055.794  12055.790  0.500  1.837350  59.8266  101.77  16.2058
  12067.220  12067.210  0.500  1.833871  59.6764  101.553  16.2275
  12078.795  12078.790  0.500  1.830857  59.4959  101.28  16.2328
  12090.552  12090.550  0.500  1.827783  59.2818  100.961  16.2314
  12102.492  12102.480  0.500  1.824452  59.1728  100.825  16.2637
  12114.608  12114.580  0.500  1.820730  59.0016  100.556  16.2808
  12126.859  12126.850  0.500  1.816784  58.8118  100.276  16.2996
  12139.294  12139.290  0.500  1.812801  58.6515  100.051  16.3279
  12151.930  12151.910  0.500  1.809415  58.4705  99.7911  16.3408
  12164.714  12164.690  0.500  1.805847  58.2882  99.5145  16.3537
  12177.668  12177.650  0.500  1.802285  58.0922  99.2181  16.3632
  12190.811  12190.780  0.500  1.798502  57.9021  98.9412  16.3794
  12204.107  12204.080  0.500  1.794653  57.7239  98.6746  16.3982
  12217.588  12217.550  0.500  1.790639  57.5316  98.3906  16.4168
  12231.223  12231.200  0.500  1.786672  57.3248  98.0849  16.4309
  12245.033  12245.010  0.500  1.782842  57.1173  97.7716  16.4412
  12259.037  12259.000  0.500  1.778939  56.9241  97.4831  16.4568
  12273.186  12273.160  0.500  1.774647  56.7209  97.1723  16.4749
  12287.513  12287.490  0.500  1.770625  56.4773  96.8001  16.478
  12302.045  12301.990  0.500  1.766755  56.296  96.5339  16.4963
  12316.698  12316.660  0.500  1.762774  56.28  96.5531  16.5655
  12331.545  12331.500  0.500  1.758663  56.077  96.2527  16.5819
  12346.548  12346.520  0.500  1.754359  55.8766  95.954  16.6018
  12361.742  12361.700  0.500  1.749862  55.6681  95.6337  16.6209
  12377.120  12377.060  0.500  1.745423  55.4417  95.2915  16.6351
  12392.630  12392.590  0.500  1.741426  55.2399  95.0026  16.6511
  12408.328  12408.290  0.500  1.737346  55.0006  94.6319  16.654
  12424.220  12424.160  0.500  1.733162  54.7933  94.3155  16.6679
  12440.242  12440.210  0.500  1.728525  54.5649  93.9674  16.6835
  12456.467  12456.420  0.500  1.723952  54.3433  93.6277  16.6994
  12472.858  12472.810  0.500  1.719190  54.1054  93.2667  16.7144
  12489.415  12489.370  0.500  1.714930  53.8936  92.9441  16.7277
  12506.159  12506.100  0.500  1.710499  53.6373  92.5333  16.7278
  12523.024  12523.000  0.500  1.706183  53.424  92.2229  16.7438
  12534.394  12534.360  0.500  1.703036  53.2448  91.9489  16.7466