File: xdidata/Ta/Ta-L3-TantalumOxide.xdi
# XDI/1.0 BlueSky/1.10.0 BMM/2023-1.0-py310-tiled
# Beamline.name: BMM (06BM) -- Beamline for Materials Measurement (NIST)
# Beamline.xray_source: NSLS-II three-pole wiggler
# Beamline.collimation: paraboloid mirror, 5 nm Rh on 30 nm Pt
# Beamline.focusing: not in use
# Beamline.harmonic_rejection: flat mirror, Pt stripe, pitch = 7.0 mrad relative to beam
# Beamline.software: Bluesky 1.10.0, Ophyd 1.7.0, DataBroker 2.0.0b13, Python 3.10.8, 2023-1.0-py310-tiled
# Detector.I0: 10 cm N2
# Detector.I1: 25 cm N2
# Detector.I2: 25 cm N2
# Element.symbol: Ta
# Element.edge: L3
# Element.reference: Ta
# Element.reference_material: Ta2O5
# Facility.name: NSLS-II
# Facility.energy: 3.0
# Facility.current: 400.7
# Facility.mode: top-off
# Facility.GUP: 301027
# Facility.SAF: 310583
# Facility.cycle: 2023-2
# Mono.name: Si(111)
# Mono.d_spacing: 3.13519
# Mono.encoder_resolution: 0.0000050 deg/ct
# Mono.angle_offset: 16.0754 deg
# Mono.scan_mode: pseudo channel cut
# Mono.scan_type: step
# Mono.direction: forward in energy
# Sample.name: Ta2O5
# Sample.prep: PEG pellet
# Sample.x: 109.138 mm
# Sample.y: 153.150 mm
# Sample.SDD_position: 205.000 mm
# Scan.experimenters: Bruce Ravel
# Scan.edge_energy: 9881.1
# Scan.start_time: 2023-05-28T17:17:41
# Scan.end_time: 2023-05-28T17:26:06
# Scan.transient_id: 78868
# Scan.uid: 1d04acbc-6002-4840-94b4-21c7ac5369c5
# Scan.plot_hint: ln(It/Ir)  --  ln($6/$7)
# Column.1: energy eV
# Column.2: requested_energy eV
# Column.3: measurement_time seconds
# Column.4: xmu
# Column.5: I0 nA
# Column.6: It nA
# Column.7: Ir nA
# ///////////
# sample courtesy Martin Stennett, University of Sheffield
# -----------
# energy  requested_energy  measurement_time  xmu  I0  It  Ir
  9681.073  9681.100  0.500  1.451953  104.457  156.122  36.5502
  9711.165  9711.100  0.500  1.440248  102.809  154.044  36.4883
  9741.116  9741.100  0.500  1.428675  103.321  155.199  37.1898
  9771.158  9771.100  0.500  1.417525  102.663  154.59  37.4591
  9801.119  9801.100  0.500  1.407375  102.153  154.177  37.7402
  9831.114  9831.100  0.500  1.401120  101.611  153.723  37.8651
  9853.084  9853.100  0.500  1.409460  101.224  153.395  37.4707
  9859.074  9859.100  0.500  1.420053  101.122  153.308  37.0547
  9865.071  9865.100  0.500  1.443395  101.022  153.238  36.1832
  9871.071  9871.100  0.500  1.504094  100.905  153.143  34.0312
  9871.960  9872.000  0.500  1.520082  100.881  153.092  33.4803
  9872.870  9872.900  0.500  1.540117  100.855  153.088  32.8153
  9873.785  9873.800  0.500  1.565660  100.831  153.067  31.9834
  9874.678  9874.700  0.500  1.597405  100.8  153.032  30.9769
  9875.581  9875.600  0.500  1.636383  100.787  153.015  29.7894
  9876.483  9876.500  0.500  1.686092  100.772  152.99  28.3402
  9877.382  9877.400  0.500  1.753008  100.722  152.957  26.5001
  9878.276  9878.300  0.500  1.843343  100.708  152.923  24.2058
  9879.184  9879.200  0.500  1.966984  100.664  152.864  21.3824
  9880.091  9880.100  0.500  2.131739  100.612  152.796  18.1263
  9880.990  9881.000  0.500  2.353790  100.336  152.398  14.4791
  9881.898  9881.900  0.500  2.630436  98.9286  150.266  10.8262
  9882.793  9882.800  0.500  2.914761  98.1842  149.146  8.086234
  9883.680  9883.700  0.500  3.112454  99.2229  150.729  6.706166
  9884.580  9884.600  0.500  3.201083  100.199  152.237  6.198795
  9885.493  9885.500  0.500  3.219882  100.35  152.485  6.093251
  9886.397  9886.400  0.500  3.196386  100.383  152.563  6.241323
  9887.297  9887.300  0.500  3.132908  100.371  152.513  6.648158
  9888.202  9888.200  0.500  3.023602  100.351  152.506  7.415709
  9889.094  9889.100  0.500  2.874457  100.332  152.489  8.607519
  9889.991  9890.000  0.500  2.702932  100.316  152.473  10.217
  9890.905  9890.900  0.500  2.538781  100.295  152.453  12.0381
  9891.797  9891.800  0.500  2.406866  100.269  152.423  13.7329
  9892.707  9892.700  0.500  2.307108  100.238  152.377  15.1689
  9893.605  9893.600  0.500  2.235955  100.207  152.345  16.2842
  9894.498  9894.500  0.500  2.188248  100.176  152.313  17.0763
  9895.404  9895.400  0.500  2.156949  100.152  152.294  17.617
  9896.306  9896.300  0.500  2.134636  100.13  152.242  18.0083
  9897.208  9897.200  0.500  2.117792  100.086  152.185  18.3074
  9898.098  9898.100  0.500  2.103920  100.066  152.174  18.5617
  9898.983  9899.000  0.500  2.093107  100.349  152.633  18.8201
  9899.882  9899.900  0.500  2.084488  100.345  152.617  18.9811
  9900.797  9900.800  0.500  2.077410  100.326  152.587  19.1122
  9901.709  9901.700  0.500  2.071286  100.288  152.56  19.2261
  9902.608  9902.600  0.500  2.066111  100.268  152.529  19.322
  9903.494  9903.500  0.500  2.062406  100.244  152.523  19.3929
  9904.385  9904.400  0.500  2.059147  100.218  152.485  19.4514
  9905.284  9905.300  0.500  2.056124  100.194  152.444  19.5051
  9906.099  9906.100  0.500  2.052734  100.179  152.457  19.5729
  9909.172  9909.110  0.500  2.035357  100.082  152.347  19.9017
  9912.261  9912.300  0.500  2.017812  99.9641  152.213  20.2361
  9915.631  9915.660  0.500  2.032990  99.9002  152.134  19.921
  9919.153  9919.180  0.500  2.062789  99.8329  152.09  19.3305
  9922.870  9922.880  0.500  2.095212  99.7415  151.982  18.7005
  9926.729  9926.750  0.500  2.130472  99.631  151.858  18.0379
  9930.792  9930.800  0.500  2.161171  99.4191  151.568  17.4591
  9934.991  9935.010  0.500  2.174196  99.4465  151.655  17.2431
  9939.395  9939.390  0.500  2.164664  99.4732  151.744  17.4185
  9943.939  9943.950  0.500  2.142444  99.3581  151.62  17.7953
  9948.676  9948.680  0.500  2.117034  99.2351  151.501  18.2389
  9953.572  9953.580  0.500  2.099295  97.3522  148.673  18.2188
  9958.661  9958.650  0.500  2.091559  98.9912  151.225  18.6755
  9963.897  9963.890  0.500  2.087771  98.8473  151.084  18.7288
  9969.311  9969.310  0.500  2.080850  95.9015  146.625  18.3023
  9974.891  9974.890  0.500  2.078542  98.7657  151.098  18.9042
  9980.662  9980.650  0.500  2.083200  98.5749  150.852  18.7857
  9986.582  9986.580  0.500  2.090635  98.1728  150.314  18.5801
  9992.695  9992.680  0.500  2.096636  98.3337  150.626  18.5072
  9998.967  9998.950  0.500  2.101718  96.4703  147.826  18.0712
  10005.403  10005.390  0.500  2.106231  98.1865  150.544  18.3206
  10011.999  10012.000  0.500  2.106574  97.9866  150.295  18.284
  10018.800  10018.790  0.500  2.101016  97.8145  150.098  18.3618
  10025.762  10025.750  0.500  2.093131  97.7161  150.03  18.4988
  10032.887  10032.870  0.500  2.086513  97.5139  149.815  18.595
  10040.157  10040.170  0.500  2.080698  97.5174  149.88  18.7115
  10047.665  10047.650  0.500  2.075193  97.3444  149.703  18.7925
  10055.311  10055.290  0.500  2.070213  97.1787  149.514  18.8625
  10063.114  10063.100  0.500  2.067247  97.0072  149.326  18.8947
  10071.118  10071.090  0.500  2.067301  96.8473  149.181  18.8754
  10079.267  10079.250  0.500  2.067206  96.6757  149.014  18.8561
  10087.579  10087.570  0.500  2.066299  96.3671  148.624  18.8237
  10096.090  10096.070  0.500  2.065061  96.2923  148.592  18.8431
  10104.766  10104.750  0.500  2.062029  96.1498  148.46  18.8835
  10113.586  10113.590  0.500  2.057873  96.1798  148.611  18.9814
  10122.626  10122.600  0.500  2.054783  96.0686  148.506  19.0267
  10131.784  10131.790  0.500  2.053373  95.8963  148.33  19.031
  10141.164  10141.150  0.500  2.050092  95.7054  148.15  19.0703
  10150.673  10150.670  0.500  2.044926  95.5126  147.951  19.1433
  10160.379  10160.370  0.500  2.038695  95.3137  147.739  19.2354
  10170.248  10170.250  0.500  2.034575  95.1124  147.533  19.2878
  10180.297  10180.290  0.500  2.032257  94.9102  147.315  19.3041
  10190.515  10190.500  0.500  2.029415  94.6994  147.076  19.3277
  10200.912  10200.890  0.500  2.025511  94.4906  146.881  19.3774
  10211.470  10211.450  0.500  2.021211  94.2446  146.58  19.4211
  10222.209  10222.180  0.500  2.016964  94.0369  146.356  19.4739
  10233.089  10233.080  0.500  2.013490  93.8058  146.128  19.5113
  10244.175  10244.150  0.500  2.009726  93.59  145.895  19.5537
  10255.398  10255.390  0.500  2.005452  93.366  145.629  19.6015
  10266.830  10266.810  0.500  2.000252  93.1257  145.386  19.671
  10278.415  10278.390  0.500  1.994548  92.7207  144.865  19.7126
  10290.174  10290.150  0.500  1.989905  92.6519  144.875  19.8057
  10302.117  10302.080  0.500  1.986102  92.4003  144.59  19.842
  10314.203  10314.180  0.500  1.982279  92.1466  144.313  19.8798
  10326.485  10326.450  0.500  1.977509  91.9188  144.038  19.9368
  10338.921  10338.890  0.500  1.971869  91.6431  143.739  20.008
  10351.536  10351.510  0.500  1.966309  91.3938  143.473  20.0823
  10364.327  10364.290  0.500  1.961727  91.1185  143.155  20.1298
  10377.281  10377.250  0.500  1.957584  90.8107  142.778  20.1601
  10390.423  10390.380  0.500  1.953109  90.5358  142.45  20.2041
  10403.692  10403.680  0.500  1.947566  90.2598  142.144  20.2726
  10417.170  10417.150  0.500  1.941223  89.98  141.813  20.3541
  10430.824  10430.800  0.500  1.935487  89.6915  141.495  20.4253
  10444.648  10444.610  0.500  1.930812  89.4101  141.182  20.4757
  10458.637  10458.600  0.500  1.926011  89.1282  140.858  20.527
  10472.793  10472.760  0.500  1.920803  88.8161  140.48  20.5788
  10487.130  10487.090  0.500  1.914800  88.5172  140.127  20.6507
  10501.623  10501.590  0.500  1.908598  88.2057  139.742  20.722
  10516.295  10516.260  0.500  1.903077  87.8842  139.365  20.7805
  10531.124  10531.100  0.500  1.898167  87.5742  139  20.8282
  10546.141  10546.120  0.500  1.892873  87.2601  138.629  20.8828
  10561.332  10561.300  0.500  1.886871  86.9466  138.258  20.9523
  10576.718  10576.660  0.500  1.880209  86.606  137.846  21.0295
  10592.218  10592.190  0.500  1.873732  86.2926  137.452  21.1057
  10607.935  10607.890  0.500  1.868124  85.9358  137.013  21.1566
  10623.797  10623.760  0.500  1.863004  85.6244  136.641  21.2074
  10639.835  10639.810  0.500  1.857391  85.2694  136.207  21.2591
  10656.046  10656.020  0.500  1.850915  84.9522  135.82  21.3364
  10672.436  10672.410  0.500  1.843781  84.5978  135.379  21.4194
  10688.995  10688.970  0.500  1.836977  84.2689  134.962  21.4991
  10705.717  10705.700  0.500  1.831431  83.9262  134.554  21.5534
  10722.637  10722.600  0.500  1.825891  83.5713  134.097  21.5995
  10733.990  10733.960  0.500  1.821895  83.3206  133.792  21.6368