File: xdidata/Ta/Ta-L3-Ta2O3.xdi
# XDI/1.0 BlueSky/1.5.3
# Beamline.name: 6BM
# Beamline.xray_source: NSLS-II three-pole wiggler
# Beamline.collimation: paraboloid mirror, 5 nm Rh on 30 nm Pt
# Beamline.focusing: not in use
# Beamline.harmonic_rejection: flat mirror, Pt stripe, pitch = 7.0 mrad relative to beam
# Detector.i0: 10 cm N2
# Detector.i1: 25 cm N2
# Detector.i2: 25 cm N2
# Element.symbol: Ta
# Element.edge: L3
# Facility.name: NSLS-II
# Facility.energy: 3.0
# Facility.current: 400.7
# Facility.mode: top-off
# Facility.gup: 305832
# Facility.saf: 305669
# Facility.cycle: 2020-1
# Mono.name: Si(111)
# Mono.d_spacing: 3.13532
# Mono.encoder_resolution: 0.0000050 deg/ct
# Mono.angle_offset: 16.0581 deg
# Mono.scan_mode: fixed exit
# Mono.scan_type: step
# Mono.direction: forward in energy
# Sample.name: Ta2O3
# Sample.prep: Powder in polyethylene glycol pellet
# Sample.x_position: -5.367 mm
# Sample.y_position: 103.555 mm
# Scan.experimenters: Neil Hyatt, Martin Stennett, Dan Austin, Seb Lawson
# Scan.edge_energy: 9881.1
# Scan.start_time: 2020-03-05T01:00:54
# Scan.end_time: 2020-03-05T18:34:04
# Scan.transient_id: 22951
# Scan.uid: e820bc4d-b17e-4e1d-8068-1a815f9a3f3c
# Scan.plot_hint: ln(I0/It)  --  ln($5/$6)
# Scan.sequence: merge of 2 scans
# Column.1: energy eV
# Column.2: requested_energy eV
# Column.3: measurement_time seconds
# Column.4: mutrans
# Column.5: i0
# Column.6: itrans
# Column.7: irefer
# /////
#
# -----
# energy   requested_energy   measurement_time   mutrans   i0   itrans   irefer
9681.11 9681.1 1.000000 0.383541 113.633 77.6981 34.0632
9711.16 9711.1 1.000000 0.374745 112.85 77.8415 34.3679
9741.13 9741.1 1.000000 0.366244 112.043 77.9386 34.649
9771.08 9771.1 1.000000 0.357903 111.047 77.888 34.8583
9801.1 9801.1 1.000000 0.350301 110.229 77.9024 35.08
9831.09 9831.1 1.000000 0.345194 109.42 77.7251 35.156
9853.08 9853.1 1.000000 0.350514 108.754 76.8479 34.6535
9859.07 9859.1 1.000000 0.358098 108.565 76.1397 34.1446
9865.08 9865.1 1.000000 0.375235 108.383 74.733 33.0816
9871.09 9871.1 1.000000 0.422117 108.207 71.2207 30.2768
9871.82 9871.85 1.000000 0.432987 108.174 70.428 29.6349
9872.58 9872.6 1.000000 0.446028 108.132 69.4924 28.8756
9873.33 9873.35 1.000000 0.461634 108.098 68.4104 27.9946
9874.08 9874.1 1.000000 0.480796 108.08 67.1159 26.9452
9874.83 9874.85 1.000000 0.504598 108.044 65.5377 25.6827
9875.58 9875.6 1.000000 0.534280 108.012 63.612 24.1995
9876.34 9876.35 1.000000 0.572103 107.961 61.2335 22.4868
9877.1 9877.1 1.000000 0.619170 107.914 58.3953 20.6748
9877.85 9877.85 1.000000 0.679860 107.725 54.8672 18.7741
9878.6 9878.6 1.000000 0.760272 106.816 50.2475 16.7143
9879.35 9879.35 1.000000 0.867880 105.642 44.6568 14.603
9880.09 9880.1 1.000000 1.004914 105.561 38.9669 12.6358
9880.84 9880.85 1.000000 1.160983 106.89 33.8028 10.9632
9881.59 9881.6 1.000000 1.313984 107.663 29.2702 9.558180
9882.34 9882.35 1.000000 1.436618 107.825 25.9709 8.584237
9883.1 9883.1 1.000000 1.510337 107.863 24.2009 8.103344
9883.85 9883.85 1.000000 1.539338 107.88 23.5342 7.969580
9884.61 9884.6 1.000000 1.540752 107.857 23.51 8.033393
9885.36 9885.35 1.000000 1.523812 107.849 23.9158 8.237076
9886.1 9886.1 1.000000 1.489888 107.81 24.7336 8.583050
9886.85 9886.85 1.000000 1.433909 107.76 26.1439 9.129622
9887.6 9887.6 1.000000 1.353337 107.73 28.3156 9.915420
9888.35 9888.35 1.000000 1.256414 107.687 31.1328 10.8996
9889.09 9889.1 1.000000 1.159551 107.623 34.1908 11.9454
9889.84 9889.85 1.000000 1.073647 107.583 37.2224 12.9671
9890.61 9890.6 1.000000 0.999564 107.525 40.0124 13.8999
9891.36 9891.35 1.000000 0.941202 107.476 42.3792 14.7018
9892.1 9892.1 1.000000 0.896020 107.439 44.2796 15.3503
9892.85 9892.85 1.000000 0.862948 107.389 45.7149 15.856
9893.6 9893.6 1.000000 0.840964 107.348 46.7003 16.2237
9894.34 9894.35 1.000000 0.825631 107.313 47.3823 16.4958
9895.09 9895.1 1.000000 0.813424 107.266 47.9343 16.7286
9895.86 9895.85 1.000000 0.803398 107.226 48.3977 16.933
9896.6 9896.6 1.000000 0.794947 107.197 48.7874 17.1061
9897.35 9897.35 1.000000 0.788080 107.141 49.0933 17.2445
9898.11 9898.1 1.000000 0.782766 107.128 49.3514 17.3698
9898.85 9898.85 1.000000 0.778342 107.072 49.5372 17.4586
9899.6 9899.6 1.000000 0.774457 107.031 49.7051 17.5449
9900.35 9900.35 1.000000 0.771083 106.982 49.8472 17.6243
9901.1 9901.1 1.000000 0.767980 106.944 49.9834 17.7058
9901.84 9901.85 1.000000 0.765590 107.097 50.1852 17.8221
9902.59 9902.6 1.000000 0.763634 107.051 50.2611 17.8656
9903.35 9903.35 1.000000 0.762024 107.211 50.4038 17.9105
9904.11 9904.1 1.000000 0.760301 107.159 50.4644 17.9382
9904.85 9904.85 1.000000 0.758293 107.118 50.5453 17.9714
9905.6 9905.6 1.000000 0.755907 107.076 50.6444 18.012
9906.36 9906.35 1.000000 0.753359 107.025 50.7486 18.0555
9907.1 9907.1 1.000000 0.750675 106.999 50.8706 18.1081
9907.84 9907.85 1.000000 0.747606 106.975 51.016 18.1725
9908.59 9908.6 1.000000 0.744266 106.936 51.1654 18.2386
9909.35 9909.35 1.000000 0.740908 106.917 51.3269 18.3044
9910.1 9910.1 1.000000 0.737940 106.908 51.4748 18.3686
9910.85 9910.85 1.000000 0.735852 106.873 51.5628 18.4014
9913.3 9913.28 1.000000 0.738840 106.796 51.3731 18.334
9916.7 9916.68 1.000000 0.757228 106.696 50.4009 18.0465
9920.27 9920.26 1.000000 0.776234 106.565 49.4041 17.7981
9924.03 9924.01 1.000000 0.798590 106.427 48.2602 17.4217
9927.94 9927.93 1.000000 0.819937 106.205 47.1565 16.9886
9932.05 9932.03 1.000000 0.834524 104.81 45.8892 16.5437
9936.3 9936.29 1.000000 0.833535 106.039 46.4578 16.7467
9940.74 9940.73 1.000000 0.822365 105.872 46.9018 16.9366
9945.35 9945.34 1.000000 0.805607 105.67 47.5927 17.189
9950.12 9950.11 1.000000 0.791170 105.478 48.1897 17.3732
9955.08 9955.07 1.000000 0.783079 104.701 48.2089 17.346
9960.19 9960.19 1.000000 0.780199 105.119 48.5514 17.5534
9965.51 9965.48 1.000000 0.776412 104.832 48.5989 17.627
9970.96 9970.94 1.000000 0.772554 104.22 48.5166 17.6246
9976.59 9976.58 1.000000 0.773198 104.658 48.6751 17.6683
9982.39 9982.39 1.000000 0.777228 103.354 47.8629 17.362
9988.36 9988.37 1.000000 0.781687 104.13 48.0255 17.4353
9994.52 9994.52 1.000000 0.784628 103.727 47.7024 17.3122
10000.8 10000.8 1.000000 0.787804 104.021 47.6973 17.3322
10007.3 10007.3 1.000000 0.789371 103.875 47.5468 17.2903
10014 10014 1.000000 0.787677 103.655 47.5296 17.3698
10020.9 10020.8 1.000000 0.782552 103.451 47.6767 17.4788
10027.9 10027.8 1.000000 0.777533 103.165 47.7808 17.5327
10035 10035 1.000000 0.773477 102.578 47.6995 17.5166
10042.4 10042.4 1.000000 0.769400 102.679 47.9398 17.611
10049.9 10049.9 1.000000 0.765897 102.413 47.9817 17.6192
10057.6 10057.6 1.000000 0.762676 102.121 47.9974 17.5634
10065.5 10065.5 1.000000 0.761324 101.798 47.9086 17.5441
10073.5 10073.5 1.000000 0.761324 101.513 47.7749 17.6457
10081.7 10081.7 1.000000 0.760658 101.241 47.6797 17.6733
10090.1 10090.1 1.000000 0.759643 98.6262 46.4906 17.2387
10098.7 10098.6 1.000000 0.758242 100.53 47.4566 17.6086
10107.4 10107.4 1.000000 0.755526 100.251 47.4527 17.6079
10116.2 10116.2 1.000000 0.752640 99.9341 47.4382 17.6161
10125.3 10125.3 1.000000 0.750800 99.6265 47.379 17.5926
10134.6 10134.5 1.000000 0.749314 99.2426 47.266 17.587
10144 10144 1.000000 0.746402 98.915 47.2442 17.6431
10153.5 10153.5 1.000000 0.741974 98.573 47.2892 17.7218
10163.3 10163.3 1.000000 0.738244 98.2151 47.2913 17.7503
10173.2 10173.2 1.000000 0.735773 97.8664 47.2403 17.7421
10183.3 10183.3 1.000000 0.733974 97.4809 47.1376 17.7108
10193.6 10193.6 1.000000 0.731520 96.8192 46.9341 17.6581
10204 10204 1.000000 0.728371 96.6949 47.0184 17.7332
10214.6 10214.6 1.000000 0.725199 96.2796 46.9643 17.7645
10225.4 10225.4 1.000000 0.722279 95.8745 46.9024 17.7932
10236.4 10236.3 1.000000 0.719572 95.4822 46.8364 17.8021
10247.5 10247.5 1.000000 0.716623 95.1024 46.7876 17.8126
10258.8 10258.8 1.000000 0.713248 94.8412 46.8252 17.8706
10270.2 10270.2 1.000000 0.709170 94.508 46.8431 17.8975
10281.9 10281.9 1.000000 0.705350 94.0863 46.8103 17.9079
10293.7 10293.7 1.000000 0.702198 93.6216 46.7237 17.9221
10305.7 10305.6 1.000000 0.699277 93.1703 46.6317 17.933
10317.8 10317.8 1.000000 0.696212 92.7311 46.5554 17.9547
10330.1 10330.1 1.000000 0.692474 92.2462 46.4825 17.9694
10342.6 10342.6 1.000000 0.688329 91.767 46.431 17.9725
10355.3 10355.3 1.000000 0.684570 91.2852 46.3589 17.9784
10368.2 10368.1 1.000000 0.681346 90.799 46.2605 17.9775
10381.1 10381.1 1.000000 0.678202 90.2733 46.1356 17.9712
10394.3 10394.3 1.000000 0.674587 89.8095 46.0652 17.9872
10407.7 10407.7 1.000000 0.670343 89.3173 46.0063 18.006
10421.2 10421.2 1.000000 0.665809 88.7996 45.9474 18.053
10434.9 10434.9 1.000000 0.661857 88.2738 45.8539 18.0659
10448.7 10448.7 1.000000 0.658457 87.7733 45.7461 18.0544
10462.8 10462.8 1.000000 0.654877 87.2699 45.6475 18.0445
10477 10477 1.000000 0.650780 86.7684 45.5705 18.0545
10491.4 10491.4 1.000000 0.646261 86.2238 45.4883 18.0752
10505.9 10505.9 1.000000 0.641910 85.7115 45.4146 18.0927
10520.6 10520.6 1.000000 0.637929 85.1682 45.3053 18.1043
10535.5 10535.5 1.000000 0.634151 84.6316 45.1899 18.1203
10550.6 10550.6 1.000000 0.630082 84.1018 45.0894 18.1334
10565.8 10565.8 1.000000 0.625522 83.5617 45.0037 18.1366
10581.3 10581.2 1.000000 0.620567 82.9782 44.9109 18.1334
10596.8 10596.8 1.000000 0.615988 82.3831 44.793 18.1257
10612.6 10612.6 1.000000 0.612068 81.8953 44.7031 18.1531
10623.2 10623.2 1.000000 0.609441 81.5423 44.6257 18.1593