File: xdidata/Mo/Mo-K-Tugarinovite.xdi
# XDI/1.0 BlueSky/1.10.0 BMM/2023-1.0-py310-tiled
# Beamline.name: BMM (06BM) -- Beamline for Materials Measurement (NIST)
# Beamline.xray_source: NSLS-II three-pole wiggler
# Beamline.collimation: paraboloid mirror, 5 nm Rh on 30 nm Pt
# Beamline.focusing: not in use
# Beamline.harmonic_rejection: flat mirror, Pt stripe, pitch = 7.0 mrad relative to beam
# Beamline.software: Bluesky 1.10.0, Ophyd 1.7.0, DataBroker 2.0.0b13, Python 3.10.8, 2023-1.0-py310-tiled
# Detector.I0: 10 cm N2
# Detector.I1: 25 cm N2
# Detector.I2: 25 cm N2
# Element.symbol: Mo
# Element.edge: K
# Element.reference: Mo
# Element.reference_material: Mo foil
# Facility.name: NSLS-II
# Facility.energy: 3.0
# Facility.current: 400.2
# Facility.mode: top-off
# Facility.GUP: 301027
# Facility.SAF: 310583
# Facility.cycle: 2023-2
# Mono.name: Si(111)
# Mono.d_spacing: 3.13519
# Mono.encoder_resolution: 0.0000050 deg/ct
# Mono.angle_offset: 16.0754 deg
# Mono.scan_mode: pseudo channel cut
# Mono.scan_type: step
# Mono.direction: forward in energy
# Sample.name: MoO2
# Sample.prep: powder in PEG pellet
# Sample.x: 117.785 mm
# Sample.y: 114.695 mm
# Sample.SDD_position: 205.000 mm
# Scan.experimenters: Bruce Ravel
# Scan.edge_energy: 19999.5
# Scan.start_time: 2023-06-23T20:50:36
# Scan.end_time: 2023-06-23T20:57:53
# Scan.transient_id: 85023
# Scan.uid: 3f9b17f1-514a-420a-82e8-8de0b92a60b6
# Scan.plot_hint: ln(I0/It)  --  ln($5/$6)
# Column.1: energy eV
# Column.2: requested_energy eV
# Column.3: measurement_time seconds
# Column.4: xmu
# Column.5: I0 nA
# Column.6: It nA
# Column.7: Ir nA
# ///////////
# sample courtesy Martin Stennett, University of Sheffield
# -----------
# energy  requested_energy  measurement_time  xmu  I0  It  Ir
  19799.514  19799.500  0.500  -0.334460  7.635485  10.6682  8.196870
  19829.600  19829.500  0.500  -0.335471  7.563174  10.5778  8.130434
  19859.639  19859.500  0.500  -0.336294  7.486345  10.479  8.060178
  19889.597  19889.500  0.500  -0.336903  7.341704  10.2828  7.911076
  19919.575  19919.500  0.500  -0.336971  7.338663  10.2793  7.902752
  19949.662  19949.500  0.500  -0.335478  7.261941  10.1566  7.790022
  19971.499  19971.500  0.500  -0.331650  7.208390  10.0432  7.656982
  19977.510  19977.500  0.500  -0.329636  7.192804  10.0013  7.600141
  19983.488  19983.500  0.500  -0.326535  7.176199  9.947336  7.525434
  19989.418  19989.500  0.500  -0.322291  7.161696  9.885197  7.419090
  19990.330  19990.400  0.500  -0.321390  7.157351  9.870301  7.396112
  19991.243  19991.300  0.500  -0.320397  7.156906  9.859888  7.374150
  19992.138  19992.200  0.500  -0.319272  7.152431  9.842640  7.346827
  19993.051  19993.100  0.500  -0.318169  7.150863  9.829638  7.318978
  19993.946  19994.000  0.500  -0.317170  7.146053  9.813218  7.289202
  19994.859  19994.900  0.500  -0.315844  7.145612  9.799606  7.256592
  19995.790  19995.800  0.500  -0.314164  7.140943  9.776762  7.219696
  19996.703  19996.700  0.500  -0.312698  7.139418  9.760364  7.179047
  19997.616  19997.600  0.500  -0.310769  7.136653  9.737776  7.135475
  19998.495  19998.500  0.500  -0.308814  7.134556  9.715901  7.082121
  19999.426  19999.400  0.500  -0.306601  7.130464  9.688866  7.018167
  20000.286  20000.300  0.500  -0.304248  7.127133  9.661579  6.946306
  20001.200  20001.200  0.500  -0.300726  7.126576  9.626854  6.854847
  20002.114  20002.100  0.500  -0.297366  7.122790  9.589469  6.741998
  20003.010  20003.000  0.500  -0.292995  7.119051  9.542634  6.599828
  20003.906  20003.900  0.500  -0.287422  7.115335  9.484643  6.407497
  20004.785  20004.800  0.500  -0.280427  7.113477  9.416072  6.171354
  20005.716  20005.700  0.500  -0.271505  7.109762  9.327565  5.883526
  20006.613  20006.600  0.500  -0.259633  7.106698  9.213505  5.543510
  20007.527  20007.500  0.500  -0.245761  7.103696  9.082742  5.202447
  20008.388  20008.400  0.500  -0.229734  7.101296  8.935319  4.873799
  20009.303  20009.300  0.500  -0.210801  7.099182  8.765126  4.553719
  20010.199  20010.200  0.500  -0.190847  7.093617  8.585219  4.258272
  20011.061  20011.100  0.500  -0.170663  7.091325  8.410960  3.992195
  20012.046  20012.000  0.500  -0.148256  7.088164  8.220918  3.728886
  20012.908  20012.900  0.500  -0.127100  7.084855  8.045066  3.500184
  20013.770  20013.800  0.500  -0.103709  7.082786  7.856774  3.274569
  20014.685  20014.700  0.500  -0.075858  7.077846  7.635646  3.040730
  20015.547  20015.600  0.500  -0.045060  7.076146  7.402286  2.819751
  20016.462  20016.500  0.500  -0.005759  7.073803  7.114659  2.575221
  20017.412  20017.400  0.500  0.043434  7.070577  6.770048  2.308854
  20018.257  20018.300  0.500  0.094764  7.066983  6.428042  2.065781
  20019.189  20019.200  0.500  0.154954  7.064595  6.050506  1.820707
  20020.105  20020.100  0.500  0.218543  7.089962  5.698124  1.608156
  20020.967  20021.000  0.500  0.279364  7.086456  5.359236  1.433796
  20021.936  20021.900  0.500  0.345523  7.084964  5.015093  1.282252
  20022.816  20022.800  0.500  0.406400  7.079737  4.715414  1.172455
  20023.679  20023.700  0.500  0.460807  7.076615  4.463748  1.097327
  20024.524  20024.500  0.500  0.508466  7.074948  4.254998  1.048276
  20027.624  20027.510  0.500  0.643373  7.067654  3.714172  0.969805
  20030.725  20030.700  0.500  0.729992  7.062143  3.403339  0.898670
  20034.109  20034.060  0.500  0.734439  7.056602  3.385578  0.865882
  20037.635  20037.580  0.500  0.723277  7.049110  3.419946  0.868513
  20041.321  20041.280  0.500  0.739183  7.035817  3.359631  0.841475
  20045.167  20045.150  0.500  0.689132  7.027004  3.527636  0.847703
  20049.227  20049.200  0.500  0.582837  7.015039  3.916581  0.898255
  20053.429  20053.410  0.500  0.512304  7.003044  4.195618  0.963721
  20057.846  20057.790  0.500  0.489668  6.993912  4.286076  1.063764
  20062.388  20062.350  0.500  0.497247  6.981753  4.246321  1.099171
  20067.109  20067.080  0.500  0.501439  6.971750  4.222500  1.080023
  20072.009  20071.980  0.500  0.487604  6.958495  4.273183  1.073821
  20077.089  20077.050  0.500  0.486982  6.942949  4.266291  1.084505
  20082.366  20082.290  0.500  0.511972  6.933327  4.155228  1.073739
  20087.699  20087.710  0.500  0.552038  6.918548  3.983529  1.010157
  20093.336  20093.290  0.500  0.590637  6.904672  3.825011  0.927152
  20099.118  20099.050  0.500  0.601734  6.890599  3.775090  0.929388
  20105.064  20104.980  0.500  0.594980  6.873359  3.791165  0.981467
  20111.120  20111.080  0.500  0.583760  6.860800  3.826935  0.993771
  20117.410  20117.350  0.500  0.557647  6.845751  3.919568  1.009458
  20123.847  20123.790  0.500  0.535403  6.828815  3.997815  1.025010
  20130.412  20130.400  0.500  0.521376  6.812565  4.044639  1.016606
  20137.213  20137.190  0.500  0.514420  6.795718  4.062803  1.005488
  20144.179  20144.150  0.500  0.510225  6.777733  4.069084  1.031331
  20151.311  20151.270  0.500  0.507675  6.759286  4.068370  1.075229
  20158.555  20158.570  0.500  0.507171  6.741311  4.059595  1.092103
  20166.089  20166.050  0.500  0.512427  6.723979  4.027932  1.086269
  20173.719  20173.690  0.500  0.517298  6.703067  3.995893  1.058928
  20181.480  20181.500  0.500  0.527872  6.685802  3.943680  1.035759
  20189.605  20189.490  0.500  0.534066  6.661052  3.904820  1.023668
  20197.647  20197.650  0.500  0.523626  6.644495  3.935991  0.988032
  20205.982  20205.970  0.500  0.510628  6.623768  3.975045  0.991864
  20214.522  20214.470  0.500  0.509299  6.602045  3.967278  1.056373
  20223.212  20223.150  0.500  0.508534  6.579759  3.956911  1.124167
  20232.018  20231.990  0.500  0.504317  6.558886  3.961029  1.108389
  20241.030  20241.000  0.500  0.499344  6.535265  3.966439  1.097906
  20250.229  20250.190  0.500  0.491060  6.510467  3.984258  1.080981
  20259.564  20259.550  0.500  0.484714  6.489249  3.996554  1.050486
  20269.105  20269.070  0.500  0.480224  6.465468  3.999830  1.042760
  20278.746  20278.770  0.500  0.480933  6.439991  3.981242  1.040287
  20288.649  20288.650  0.500  0.491524  6.417808  3.925731  1.048902
  20298.671  20298.690  0.500  0.499825  6.393815  3.878724  1.077936
  20308.938  20308.900  0.500  0.494415  6.368826  3.884524  1.105175
  20319.324  20319.290  0.500  0.487424  6.342596  3.895665  1.102885
  20329.939  20329.850  0.500  0.486131  6.315938  3.884310  1.069079
  20340.565  20340.580  0.500  0.487287  6.290868  3.864423  1.042050
  20351.566  20351.480  0.500  0.483147  6.266129  3.865193  1.037442
  20362.560  20362.550  0.500  0.477342  6.239377  3.871099  1.051397
  20373.859  20373.790  0.500  0.474562  6.210801  3.864097  1.058883
  20385.206  20385.210  0.500  0.467970  6.184531  3.873200  1.083948
  20396.840  20396.790  0.500  0.459871  6.155925  3.886634  1.095580
  20408.506  20408.550  0.500  0.460106  6.126041  3.866858  1.093471
  20420.534  20420.480  0.500  0.470492  6.095721  3.807965  1.070918
  20432.594  20432.580  0.500  0.477194  6.069142  3.766036  1.054857
  20444.943  20444.850  0.500  0.472047  6.055473  3.776947  1.062531
  20457.290  20457.290  0.500  0.461253  6.025907  3.799291  1.058958
  20469.964  20469.910  0.500  0.455640  5.995661  3.801500  1.060972
  20482.728  20482.690  0.500  0.453473  5.961962  3.788336  1.066326
  20495.729  20495.650  0.500  0.453028  5.931082  3.770392  1.077952
  20508.821  20508.780  0.500  0.452406  5.897247  3.751213  1.071870
  20522.114  20522.080  0.500  0.452748  5.861228  3.727030  1.065687
  20535.666  20535.550  0.500  0.451521  5.794662  3.689224  1.060107
  20549.217  20549.200  0.500  0.445692  5.804417  3.717039  1.068936
  20563.027  20563.010  0.500  0.440812  5.764514  3.709542  1.066549
  20577.024  20577.000  0.500  0.442342  5.706384  3.666522  1.056993
  20591.282  20591.160  0.500  0.443212  5.701534  3.660221  1.047614
  20605.578  20605.490  0.500  0.440065  5.663213  3.647077  1.044195
  20620.082  20619.990  0.500  0.436050  5.620463  3.634109  1.058254
  20634.755  20634.660  0.500  0.432167  5.594517  3.631408  1.064294
  20649.618  20649.500  0.500  0.430167  5.558412  3.615193  1.065528
  20664.690  20664.520  0.500  0.429736  5.517605  3.590200  1.057150
  20679.803  20679.700  0.500  0.429122  5.327417  3.468578  1.018000
  20695.183  20695.060  0.500  0.426797  5.448735  3.555822  1.045926
  20710.755  20710.590  0.500  0.423449  5.407300  3.540616  1.040637
  20726.332  20726.290  0.500  0.418308  5.370556  3.534683  1.039236
  20742.216  20742.160  0.500  0.415789  5.330565  3.517212  1.041575
  20758.333  20758.210  0.500  0.414162  5.289802  3.495998  1.045259
  20774.418  20774.420  0.500  0.412832  5.251807  3.475507  1.044445
  20790.908  20790.810  0.500  0.410348  5.209754  3.456252  1.044288
  20807.444  20807.370  0.500  0.408133  5.171006  3.438152  1.033675
  20824.158  20824.100  0.500  0.405045  5.129938  3.421394  1.028870
  20841.014  20841.000  0.500  0.402902  5.082044  3.396725  1.024370
  20852.412  20852.360  0.500  0.402214  5.062193  3.385786  1.020957