File: xdidata/Mo/Mo-K-Molybdite.xdi
# XDI/1.0 BlueSky/1.10.0 BMM/2023-1.0-py310-tiled
# Beamline.name: BMM (06BM) -- Beamline for Materials Measurement (NIST)
# Beamline.xray_source: NSLS-II three-pole wiggler
# Beamline.collimation: paraboloid mirror, 5 nm Rh on 30 nm Pt
# Beamline.focusing: not in use
# Beamline.harmonic_rejection: flat mirror, Pt stripe, pitch = 7.0 mrad relative to beam
# Beamline.software: Bluesky 1.10.0, Ophyd 1.7.0, DataBroker 2.0.0b13, Python 3.10.8, 2023-1.0-py310-tiled
# Detector.I0: 10 cm N2
# Detector.I1: 25 cm N2
# Detector.I2: 25 cm N2
# Element.symbol: Mo
# Element.edge: K
# Element.reference: Mo
# Element.reference_material: Mo foil
# Facility.name: NSLS-II
# Facility.energy: 3.0
# Facility.current: 399.9
# Facility.mode: top-off
# Facility.GUP: 301027
# Facility.SAF: 310583
# Facility.cycle: 2023-2
# Mono.name: Si(111)
# Mono.d_spacing: 3.13519
# Mono.encoder_resolution: 0.0000050 deg/ct
# Mono.angle_offset: 16.0754 deg
# Mono.scan_mode: pseudo channel cut
# Mono.scan_type: step
# Mono.direction: forward in energy
# Sample.name: MoO3
# Sample.prep: powder in PEG pellet
# Sample.x: 117.785 mm
# Sample.y: 114.695 mm
# Sample.SDD_position: 205.000 mm
# Scan.experimenters: Bruce Ravel
# Scan.edge_energy: 19999.5
# Scan.start_time: 2023-06-23T20:58:22
# Scan.end_time: 2023-06-23T21:05:48
# Scan.transient_id: 85028
# Scan.uid: 8b68f990-eea7-4e4f-95c1-113e12e6abe0
# Scan.plot_hint: ln(I0/It)  --  ln($5/$6)
# Column.1: energy eV
# Column.2: requested_energy eV
# Column.3: measurement_time seconds
# Column.4: xmu
# Column.5: I0 nA
# Column.6: It nA
# Column.7: Ir nA
# ///////////
# sample courtesy Martin Stennett, University of Sheffield
# -----------
# energy  requested_energy  measurement_time  xmu  I0  It  Ir
  19799.565  19799.500  0.500  -0.351126  7.646903  10.8637  8.346995
  19829.600  19829.500  0.500  -0.351858  7.577790  10.7734  8.285340
  19859.570  19859.500  0.500  -0.352899  7.500419  10.6745  8.211312
  19889.579  19889.500  0.500  -0.353396  7.347570  10.4622  8.048374
  19919.558  19919.500  0.500  -0.353193  7.349509  10.4628  8.044199
  19949.628  19949.500  0.500  -0.350975  7.273482  10.3316  7.923505
  19971.464  19971.500  0.500  -0.346720  7.218247  10.2096  7.784492
  19977.439  19977.500  0.500  -0.344356  7.201433  10.1618  7.722578
  19983.453  19983.500  0.500  -0.340718  7.186071  10.1033  7.642085
  19989.418  19989.500  0.500  -0.335323  7.171194  10.0281  7.522908
  19990.260  19990.400  0.500  -0.334044  7.169101  10.0124  7.500105
  19991.208  19991.300  0.500  -0.333141  7.164459  9.996889  7.474119
  19992.103  19992.200  0.500  -0.331943  7.162442  9.982107  7.447281
  19992.998  19993.100  0.500  -0.330286  7.159280  9.961176  7.413815
  19993.929  19994.000  0.500  -0.328589  7.157577  9.941920  7.381265
  19994.859  19994.900  0.500  -0.327024  7.153165  9.920254  7.346187
  19995.737  19995.800  0.500  -0.324825  7.152967  9.898196  7.305344
  19996.668  19996.700  0.500  -0.322866  7.149626  9.874205  7.259177
  19997.581  19997.600  0.500  -0.320649  7.144854  9.845763  7.206270
  19998.442  19998.500  0.500  -0.317982  7.143557  9.817760  7.148590
  19999.355  19999.400  0.500  -0.314905  7.166370  9.818858  7.105092
  20000.304  20000.300  0.500  -0.310984  7.161814  9.774214  7.013876
  20001.200  20001.200  0.500  -0.306904  7.160194  9.732210  6.912144
  20002.078  20002.100  0.500  -0.302038  7.157107  9.680793  6.788109
  20003.010  20003.000  0.500  -0.295532  7.153705  9.613447  6.615101
  20003.906  20003.900  0.500  -0.287027  7.151558  9.529170  6.396335
  20004.820  20004.800  0.500  -0.277055  7.148497  9.430577  6.134699
  20005.699  20005.700  0.500  -0.263060  7.146278  9.296631  5.805698
  20006.630  20006.600  0.500  -0.243996  7.141801  9.115360  5.428481
  20007.509  20007.500  0.500  -0.219912  7.139401  8.895457  5.049751
  20008.406  20008.400  0.500  -0.186430  7.135355  8.597675  4.643772
  20009.355  20009.300  0.500  -0.143730  7.132121  8.234548  4.237878
  20010.199  20010.200  0.500  -0.097517  7.130205  7.860554  3.880099
  20011.096  20011.100  0.500  -0.043352  7.127223  7.442994  3.514703
  20012.046  20012.000  0.500  0.008803  7.123743  7.061311  3.184231
  20012.925  20012.900  0.500  0.046559  7.122000  6.798005  2.931779
  20013.805  20013.800  0.500  0.067023  7.119365  6.657846  2.741400
  20014.685  20014.700  0.500  0.069456  7.116157  6.638672  2.601155
  20015.600  20015.600  0.500  0.058365  7.112950  6.709686  2.495289
  20016.497  20016.500  0.500  0.044867  7.109599  6.797662  2.399593
  20017.394  20017.400  0.500  0.036273  7.104800  6.851709  2.278727
  20018.309  20018.300  0.500  0.039759  7.102471  6.825627  2.128946
  20019.207  20019.200  0.500  0.056218  7.097525  6.709526  1.969351
  20020.070  20020.100  0.500  0.086468  7.094476  6.506805  1.802503
  20020.985  20021.000  0.500  0.130010  7.091257  6.226737  1.640739
  20021.883  20021.900  0.500  0.182901  7.088896  5.903990  1.496769
  20022.746  20022.800  0.500  0.242183  7.085910  5.561819  1.378420
  20023.679  20023.700  0.500  0.307511  7.083003  5.207952  1.280098
  20024.506  20024.500  0.500  0.362425  7.081752  4.928806  1.216775
  20027.501  20027.510  0.500  0.514294  7.074568  4.230043  1.108951
  20030.707  20030.700  0.500  0.573419  7.067859  3.983413  1.051840
  20034.073  20034.060  0.500  0.599054  7.061590  3.879149  0.992657
  20037.617  20037.580  0.500  0.583795  7.052963  3.933986  1.001457
  20041.339  20041.280  0.500  0.573551  7.041117  3.967817  0.994416
  20045.203  20045.150  0.500  0.594248  7.030820  3.880855  0.932715
  20049.209  20049.200  0.500  0.594259  7.021141  3.875469  0.888764
  20053.429  20053.410  0.500  0.586290  7.009703  3.900114  0.898445
  20057.740  20057.790  0.500  0.587025  7.000463  3.892110  0.968709
  20062.370  20062.350  0.500  0.584568  6.988564  3.895054  1.009687
  20067.091  20067.080  0.500  0.562168  6.976177  3.976227  1.016857
  20072.027  20071.980  0.500  0.528693  6.963740  4.104254  1.031708
  20077.036  20077.050  0.500  0.504083  6.951189  4.198928  1.069543
  20082.295  20082.290  0.500  0.502447  6.938259  4.197981  1.085799
  20087.752  20087.710  0.500  0.513413  6.922669  4.142869  1.049839
  20093.318  20093.290  0.500  0.517515  6.909190  4.117877  0.997605
  20099.065  20099.050  0.500  0.507151  6.894195  4.151747  1.025138
  20104.993  20104.980  0.500  0.500137  6.878113  4.171215  1.082598
  20111.102  20111.080  0.500  0.502148  6.863333  4.153890  1.080361
  20117.374  20117.350  0.500  0.509290  6.848570  4.115457  1.061052
  20123.811  20123.790  0.500  0.518900  6.831868  4.066158  1.043494
  20130.448  20130.400  0.500  0.527435  6.815398  4.021879  1.011605
  20137.249  20137.190  0.500  0.529760  6.797777  4.002165  0.990964
  20144.215  20144.150  0.500  0.520519  6.781148  4.029439  1.024575
  20151.240  20151.270  0.500  0.510788  6.763348  4.058162  1.073864
  20158.555  20158.570  0.500  0.509571  6.743320  4.051072  1.090676
  20166.107  20166.050  0.500  0.508563  6.726239  4.044886  1.091097
  20173.701  20173.690  0.500  0.505134  6.706223  4.046700  1.072537
  20181.462  20181.500  0.500  0.501797  6.686299  4.048163  1.065114
  20189.551  20189.490  0.500  0.495667  6.662811  4.058748  1.064369
  20197.683  20197.650  0.500  0.490960  6.646924  4.068175  1.020340
  20205.946  20205.970  0.500  0.487753  6.648518  4.082219  1.020335
  20214.540  20214.470  0.500  0.485369  6.627082  4.078770  1.089238
  20223.212  20223.150  0.500  0.487312  6.604240  4.056821  1.153665
  20232.000  20231.990  0.500  0.489153  6.583239  4.036483  1.129645
  20241.066  20241.000  0.500  0.483687  6.558604  4.043418  1.120631
  20250.229  20250.190  0.500  0.477618  6.536495  4.054321  1.099483
  20259.582  20259.550  0.500  0.472506  6.514142  4.061162  1.067039
  20269.105  20269.070  0.500  0.473827  6.489033  4.040167  1.054587
  20278.800  20278.770  0.500  0.478581  6.462933  4.004832  1.046923
  20288.704  20288.650  0.500  0.480911  6.441361  3.982179  1.066250
  20298.707  20298.690  0.500  0.480377  6.414876  3.967922  1.104631
  20308.920  20308.900  0.500  0.477396  6.389619  3.964099  1.129148
  20319.342  20319.290  0.500  0.472968  6.361912  3.964426  1.121559
  20329.884  20329.850  0.500  0.468067  6.337965  3.968908  1.092790
  20340.656  20340.580  0.500  0.468966  6.310119  3.947917  1.065003
  20351.438  20351.480  0.500  0.472203  6.285558  3.919844  1.052846
  20362.579  20362.550  0.500  0.469070  6.256041  3.913680  1.064799
  20373.822  20373.790  0.500  0.461453  6.229717  3.927010  1.077439
  20385.297  20385.210  0.500  0.454664  6.198526  3.933965  1.102965
  20396.786  20396.790  0.500  0.453228  6.169741  3.921322  1.105868
  20408.598  20408.550  0.500  0.454703  6.142377  3.898174  1.103029
  20420.515  20420.480  0.500  0.456484  6.111000  3.871363  1.090781
  20432.630  20432.580  0.500  0.457191  6.081857  3.850176  1.078774
  20444.888  20444.850  0.500  0.455143  6.048290  3.836776  1.080597
  20457.290  20457.290  0.500  0.449809  6.018758  3.838463  1.071379
  20469.964  20469.910  0.500  0.447435  5.986540  3.826991  1.069352
  20482.728  20482.690  0.500  0.448188  5.956464  3.804899  1.072201
  20495.674  20495.650  0.500  0.449272  5.923113  3.779494  1.081516
  20508.839  20508.780  0.500  0.447543  5.889365  3.764463  1.077466
  20522.133  20522.080  0.500  0.442683  5.851445  3.758444  1.075476
  20535.592  20535.550  0.500  0.438466  5.791000  3.735342  1.074469
  20549.273  20549.200  0.500  0.434740  5.792415  3.750202  1.079452
  20563.009  20563.010  0.500  0.433958  5.755054  3.728928  1.073264
  20577.061  20577.000  0.500  0.433275  5.693097  3.691302  1.064885
  20591.226  20591.160  0.500  0.432471  5.692117  3.693637  1.057886
  20605.522  20605.490  0.500  0.430983  5.651692  3.672865  1.052059
  20620.044  20619.990  0.500  0.429208  5.610855  3.652804  1.063639
  20634.680  20634.660  0.500  0.426482  5.583146  3.644687  1.069370
  20649.562  20649.500  0.500  0.424668  5.544577  3.626081  1.069642
  20664.577  20664.520  0.500  0.423467  5.503013  3.603222  1.061276
  20679.746  20679.700  0.500  0.423181  5.312276  3.479329  1.022209
  20695.107  20695.060  0.500  0.419338  5.435288  3.573602  1.051732
  20710.623  20710.590  0.500  0.416623  5.395589  3.557148  1.046678
  20726.351  20726.290  0.500  0.413983  5.354158  3.539165  1.041242
  20742.216  20742.160  0.500  0.411612  5.316004  3.522284  1.044631
  20758.238  20758.210  0.500  0.409067  5.274360  3.503597  1.048602
  20774.494  20774.420  0.500  0.406976  5.236137  3.485487  1.048257
  20790.813  20790.810  0.500  0.405328  5.195279  3.463993  1.048530
  20807.406  20807.370  0.500  0.403403  5.156730  3.444916  1.037111
  20824.215  20824.100  0.500  0.401441  5.114672  3.423532  1.030034
  20841.071  20841.000  0.500  0.398797  5.066689  3.400390  1.026053
  20852.451  20852.360  0.500  0.397616  5.046124  3.390593  1.022914