File: xdidata/Mo/Mo-K-MolybdenumFoil.xdi
# XDI/1.0 BlueSky/1.10.0 BMM/2023-1.0-py310-tiled
# Beamline.name: BMM (06BM) -- Beamline for Materials Measurement (NIST)
# Beamline.xray_source: NSLS-II three-pole wiggler
# Beamline.collimation: paraboloid mirror, 5 nm Rh on 30 nm Pt
# Beamline.focusing: not in use
# Beamline.harmonic_rejection: flat mirror, Pt stripe, pitch = 7.0 mrad relative to beam
# Beamline.software: Bluesky 1.10.0, Ophyd 1.7.0, DataBroker 2.0.0b13, Python 3.10.8, 2023-1.0-py310-tiled
# Detector.I0: 10 cm N2
# Detector.I1: 25 cm N2
# Detector.I2: 25 cm N2
# Element.symbol: Mo
# Element.edge: K
# Element.reference: Mo
# Element.reference_material: Mo foil
# Facility.name: NSLS-II
# Facility.energy: 3.0
# Facility.current: 400.2
# Facility.mode: top-off
# Facility.GUP: 301027
# Facility.SAF: 310583
# Facility.cycle: 2023-2
# Mono.name: Si(111)
# Mono.d_spacing: 3.13519
# Mono.encoder_resolution: 0.0000050 deg/ct
# Mono.angle_offset: 16.0754 deg
# Mono.scan_mode: pseudo channel cut
# Mono.scan_type: step
# Mono.direction: forward in energy
# Sample.name: Mo foil
# Sample.prep: reference foil
# Sample.x: 109.138 mm
# Sample.y: 153.150 mm
# Sample.SDD_position: 205.000 mm
# Scan.experimenters: Bruce Ravel
# Scan.edge_energy: 19999.5
# Scan.start_time: 2023-05-28T22:39:28
# Scan.end_time: 2023-05-28T22:46:53
# Scan.transient_id: 79078
# Scan.uid: 1e5cfc4a-a739-4433-bf42-e1fb60af53aa
# Scan.plot_hint: ln(It/Ir)  --  ln($6/$7)
# Column.1: energy eV
# Column.2: requested_energy eV
# Column.3: measurement_time seconds
# Column.4: xmu
# Column.5: I0 nA
# Column.6: It nA
# Column.7: Ir nA
# ///////////
# standard reference foil
# -----------
# energy  requested_energy  measurement_time  xmu  I0  It  Ir
  19799.462  19799.500  0.500  0.272870  7.215482  13.6435  10.3853
  19829.617  19829.500  0.500  0.272171  7.160785  13.5411  10.3146
  19859.570  19859.500  0.500  0.271553  7.086421  13.4016  10.2146
  19889.597  19889.500  0.500  0.271343  6.952972  13.1539  10.0279
  19919.610  19919.500  0.500  0.271991  6.953039  13.1556  10.0227
  19949.593  19949.500  0.500  0.274409  6.885486  13.0278  9.901366
  19971.447  19971.500  0.500  0.280028  6.838007  12.9418  9.780904
  19977.475  19977.500  0.500  0.283394  6.827769  12.9226  9.733638
  19983.541  19983.500  0.500  0.288236  6.803043  12.8773  9.652615
  19989.471  19989.500  0.500  0.296280  6.789168  12.8487  9.554023
  19990.348  19990.400  0.500  0.297686  6.789505  12.8494  9.541159
  19991.296  19991.300  0.500  0.299837  6.781199  12.8368  9.511258
  19992.173  19992.200  0.500  0.301769  6.782858  12.8409  9.495952
  19993.051  19993.100  0.500  0.304187  6.778376  12.8301  9.465087
  19993.964  19994.000  0.500  0.306563  6.781517  12.8374  9.447943
  19994.877  19994.900  0.500  0.309188  6.771683  12.82  9.410459
  19995.737  19995.800  0.500  0.312399  6.775981  12.8246  9.383645
  19996.703  19996.700  0.500  0.316217  6.759890  12.7956  9.326738
  19997.581  19997.600  0.500  0.320496  6.766792  12.8106  9.297825
  19998.424  19998.500  0.500  0.325507  6.758479  12.7951  9.240103
  19999.373  19999.400  0.500  0.331656  6.757210  12.7902  9.179958
  20000.269  20000.300  0.500  0.339424  6.753625  12.7863  9.106161
  20001.165  20001.200  0.500  0.349423  6.751409  12.7814  9.012120
  20002.096  20002.100  0.500  0.362667  6.747943  12.775  8.889055
  20002.975  20003.000  0.500  0.380116  6.744473  12.7632  8.727266
  20003.871  20003.900  0.500  0.403491  6.743295  12.7624  8.525095
  20004.785  20004.800  0.500  0.435543  6.748148  12.7727  8.262823
  20005.699  20005.700  0.500  0.475290  6.750504  12.7779  7.944073
  20006.595  20006.600  0.500  0.521447  6.751519  12.7833  7.588953
  20007.527  20007.500  0.500  0.574137  6.746910  12.7726  7.193401
  20008.423  20008.400  0.500  0.623266  6.744671  12.7713  6.847868
  20009.303  20009.300  0.500  0.671776  6.744579  12.7757  6.525814
  20010.217  20010.200  0.500  0.719100  6.738462  12.7597  6.216405
  20011.079  20011.100  0.500  0.761170  6.732313  12.7498  5.955676
  20012.028  20012.000  0.500  0.805930  6.725678  12.7421  5.691556
  20012.943  20012.900  0.500  0.850012  6.728452  12.7412  5.445704
  20013.787  20013.800  0.500  0.893120  6.724422  12.7331  5.212649
  20014.702  20014.700  0.500  0.938293  6.720965  12.7283  4.980535
  20015.600  20015.600  0.500  0.988234  6.722820  12.7305  4.738718
  20016.497  20016.500  0.500  1.041102  6.720482  12.7308  4.494789
  20017.430  20017.400  0.500  1.101975  6.710606  12.7124  4.223233
  20018.309  20018.300  0.500  1.166740  6.707567  12.7076  3.956902
  20019.207  20019.200  0.500  1.230638  6.702222  12.6969  3.708857
  20020.105  20020.100  0.500  1.291842  6.704007  12.6947  3.488034
  20020.985  20021.000  0.500  1.341901  6.700740  12.6967  3.318275
  20021.865  20021.900  0.500  1.380263  6.700367  12.6914  3.192046
  20022.798  20022.800  0.500  1.403937  6.703223  12.698  3.118977
  20023.679  20023.700  0.500  1.410512  6.693652  12.6781  3.093698
  20024.489  20024.500  0.500  1.406070  6.692604  12.6808  3.108130
  20027.553  20027.510  0.500  1.346094  6.693059  12.68  3.300039
  20030.672  20030.700  0.500  1.337875  6.682100  12.6578  3.321449
  20034.091  20034.060  0.500  1.368649  6.674520  12.6421  3.216793
  20037.600  20037.580  0.500  1.375150  6.671898  12.6404  3.195524
  20041.339  20041.280  0.500  1.390036  6.662446  12.6202  3.143277
  20045.203  20045.150  0.500  1.431358  6.645847  12.5914  3.009156
  20049.209  20049.200  0.500  1.478781  6.638238  12.5769  2.866477
  20053.429  20053.410  0.500  1.475322  6.627620  12.5551  2.871422
  20057.846  20057.790  0.500  1.397629  6.626818  12.5543  3.103202
  20062.370  20062.350  0.500  1.357320  6.613638  12.5311  3.224870
  20067.109  20067.080  0.500  1.370285  6.603327  12.5135  3.178865
  20071.991  20071.980  0.500  1.387220  6.589556  12.4868  3.118813
  20077.053  20077.050  0.500  1.375316  6.583824  12.478  3.153931
  20082.383  20082.290  0.500  1.359175  6.569281  12.449  3.197819
  20087.734  20087.710  0.500  1.379021  6.558295  12.4263  3.129251
  20093.283  20093.290  0.500  1.423092  6.543174  12.398  2.987530
  20099.101  20099.050  0.500  1.406428  6.527295  12.3719  3.031318
  20105.011  20104.980  0.500  1.356302  6.515427  12.3471  3.180756
  20111.137  20111.080  0.500  1.353908  6.503536  12.3272  3.183251
  20117.374  20117.350  0.500  1.361534  6.488563  12.2956  3.150953
  20123.811  20123.790  0.500  1.366626  6.474514  12.2736  3.129355
  20130.430  20130.400  0.500  1.387147  6.461265  12.2446  3.058549
  20137.213  20137.190  0.500  1.402207  6.446731  12.2195  3.006647
  20144.162  20144.150  0.500  1.377030  6.424299  12.1794  3.073188
  20151.364  20151.270  0.500  1.335709  6.410997  12.1512  3.195428
  20158.608  20158.570  0.500  1.318545  6.390717  12.1179  3.241836
  20166.036  20166.050  0.500  1.316752  6.377220  12.0918  3.240643
  20173.701  20173.690  0.500  1.333448  6.360234  12.058  3.178089
  20181.480  20181.500  0.500  1.342319  6.339800  12.0189  3.139806
  20189.515  20189.490  0.500  1.345534  6.327120  11.9995  3.124664
  20197.718  20197.650  0.500  1.389673  6.305693  11.9563  2.978986
  20205.946  20205.970  0.500  1.393145  6.285222  11.9197  2.959585
  20214.540  20214.470  0.500  1.326703  6.289129  11.9249  3.164271
  20223.104  20223.150  0.500  1.263993  6.273125  11.8956  3.360787
  20232.000  20231.990  0.500  1.279450  6.253767  11.8559  3.298187
  20241.012  20241.000  0.500  1.289831  6.232206  11.8192  3.254029
  20250.229  20250.190  0.500  1.311186  6.212444  11.7827  3.175449
  20259.618  20259.550  0.500  1.343010  6.192267  11.7457  3.066328
  20269.087  20269.070  0.500  1.349571  6.173121  11.7098  3.036968
  20278.782  20278.770  0.500  1.347726  6.148933  11.6646  3.030806
  20288.577  20288.650  0.500  1.325101  6.126788  11.6237  3.089315
  20298.689  20298.690  0.500  1.285283  6.102738  11.5778  3.202093
  20308.865  20308.900  0.500  1.262169  6.084982  11.5452  3.267742
  20319.342  20319.290  0.500  1.269166  6.057661  11.4963  3.231230
  20329.794  20329.850  0.500  1.296476  6.036984  11.457  3.133416
  20340.619  20340.580  0.500  1.316768  6.012497  11.4092  3.057667
  20351.456  20351.480  0.500  1.320831  5.992935  11.371  3.035062
  20362.597  20362.550  0.500  1.308061  5.960189  11.3093  3.057397
  20373.822  20373.790  0.500  1.300591  5.938280  11.2711  3.069917
  20385.297  20385.210  0.500  1.277623  5.911516  11.2191  3.126749
  20396.786  20396.790  0.500  1.272348  5.884349  11.1704  3.129652
  20408.634  20408.550  0.500  1.268883  5.861007  11.1266  3.128184
  20420.497  20420.480  0.500  1.273974  5.831866  11.0724  3.097155
  20432.612  20432.580  0.500  1.278809  5.804207  11.022  3.068191
  20444.907  20444.850  0.500  1.273699  5.778295  10.9722  3.069965
  20457.363  20457.290  0.500  1.282685  5.752322  10.9205  3.028168
  20469.982  20469.910  0.500  1.281395  5.725071  10.8743  3.019248
  20482.709  20482.690  0.500  1.272558  5.697814  10.8183  3.030355
  20495.692  20495.650  0.500  1.257568  5.665944  10.7577  3.058892
  20508.728  20508.780  0.500  1.258124  5.638176  10.7066  3.042682
  20522.133  20522.080  0.500  1.257800  5.606920  10.6486  3.027168
  20535.555  20535.550  0.500  1.252258  5.544824  10.5337  3.011147
  20549.235  20549.200  0.500  1.251631  5.547471  10.537  3.013980
  20563.065  20563.010  0.500  1.251733  5.512445  10.4717  2.994999
  20577.024  20577.000  0.500  1.249240  5.446800  10.3507  2.967771
  20591.282  20591.160  0.500  1.256605  5.464269  10.384  2.955483
  20605.504  20605.490  0.500  1.256410  5.418669  10.2978  2.931513
  20620.100  20619.990  0.500  1.239404  5.380441  10.2298  2.962115
  20634.755  20634.660  0.500  1.232670  5.364250  10.1995  2.973291
  20649.618  20649.500  0.500  1.226978  5.328374  10.1272  2.969064
  20664.615  20664.520  0.500  1.228783  5.289723  10.0602  2.944100
  20679.934  20679.700  0.500  1.231568  5.118739  9.733582  2.840596
  20694.976  20695.060  0.500  1.228986  5.225353  9.935329  2.906970
  20710.510  20710.590  0.500  1.229717  5.187863  9.866528  2.884728
  20726.257  20726.290  0.500  1.229437  5.153311  9.800529  2.866236
  20742.178  20742.160  0.500  1.221817  5.117327  9.732129  2.868002
  20758.219  20758.210  0.500  1.212720  5.084923  9.670810  2.875975
  20774.380  20774.420  0.500  1.207133  5.044545  9.595413  2.869543
  20790.832  20790.810  0.500  1.201462  5.007844  9.526430  2.865114
  20807.349  20807.370  0.500  1.207318  4.972958  9.464010  2.829720
  20824.158  20824.100  0.500  1.207265  4.934114  9.389471  2.807583
  20840.995  20841.000  0.500  1.203898  4.890693  9.307979  2.792604
  20852.412  20852.360  0.500  1.204029  4.870068  9.268104  2.780275