File: xdidata/Mo/Mo-K-MolybdenumDisulfide.xdi
# XDI/1.0 BlueSky/1.10.0 BMM/2023-1.0-py310-tiled
# Beamline.name: BMM (06BM) -- Beamline for Materials Measurement (NIST)
# Beamline.xray_source: NSLS-II three-pole wiggler
# Beamline.collimation: paraboloid mirror, 5 nm Rh on 30 nm Pt
# Beamline.focusing: not in use
# Beamline.harmonic_rejection: flat mirror, Pt stripe, pitch = 7.0 mrad relative to beam
# Beamline.software: Bluesky 1.10.0, Ophyd 1.7.0, DataBroker 2.0.0b13, Python 3.10.8, 2023-1.0-py310-tiled
# Detector.I0: 10 cm N2
# Detector.I1: 25 cm N2
# Detector.I2: 25 cm N2
# Element.symbol: Mo
# Element.edge: K
# Element.reference: Mo
# Element.reference_material: Mo foil
# Facility.name: NSLS-II
# Facility.energy: 3.0
# Facility.current: 400.6
# Facility.mode: top-off
# Facility.GUP: 301027
# Facility.SAF: 310583
# Facility.cycle: 2023-2
# Mono.name: Si(111)
# Mono.d_spacing: 3.13519
# Mono.encoder_resolution: 0.0000050 deg/ct
# Mono.angle_offset: 16.0754 deg
# Mono.scan_mode: pseudo channel cut
# Mono.scan_type: step
# Mono.direction: forward in energy
# Sample.name: MoS2
# Sample.prep: powder in PEG pellet
# Sample.x: 143.785 mm
# Sample.y: 114.695 mm
# Sample.SDD_position: 205.000 mm
# Scan.experimenters: Bruce Ravel
# Scan.edge_energy: 19999.5
# Scan.start_time: 2023-06-23T21:14:15
# Scan.end_time: 2023-06-23T21:21:52
# Scan.transient_id: 85038
# Scan.uid: 01e31c8f-5ee1-40f0-9a1e-525d4b3168d9
# Scan.plot_hint: ln(I0/It)  --  ln($5/$6)
# Column.1: energy eV
# Column.2: requested_energy eV
# Column.3: measurement_time seconds
# Column.4: xmu
# Column.5: I0 nA
# Column.6: It nA
# Column.7: Ir nA
# ///////////
# sample courtesy Martin Stennett, University of Sheffield
# -----------
# energy  requested_energy  measurement_time  xmu  I0  It  Ir
  19799.273  19799.500  0.500  -0.249885  7.668670  9.845635  7.563196
  19829.514  19829.500  0.500  -0.250934  7.597408  9.764381  7.507274
  19859.518  19859.500  0.500  -0.252365  7.518386  9.676658  7.443984
  19889.562  19889.500  0.500  -0.253053  7.353414  9.470841  7.286857
  19919.593  19919.500  0.500  -0.253256  7.368913  9.492725  7.300683
  19949.558  19949.500  0.500  -0.251903  7.292007  9.380956  7.194133
  19971.499  19971.500  0.500  -0.247751  7.236403  9.270852  7.066064
  19977.597  19977.500  0.500  -0.245258  7.219939  9.226728  7.007103
  19983.453  19983.500  0.500  -0.241706  7.203178  9.172669  6.931445
  19989.664  19989.500  0.500  -0.235530  7.185556  9.093889  6.808757
  19990.278  19990.400  0.500  -0.234652  7.183592  9.083432  6.792364
  19991.155  19991.300  0.500  -0.233495  7.180236  9.068689  6.769205
  19992.086  19992.200  0.500  -0.231963  7.176987  9.050709  6.739986
  19993.034  19993.100  0.500  -0.230539  7.173835  9.033852  6.707997
  19993.911  19994.000  0.500  -0.228287  7.174266  9.014077  6.676379
  19994.807  19994.900  0.500  -0.226296  7.170507  8.991437  6.637795
  19995.755  19995.800  0.500  -0.224122  7.166836  8.967317  6.595192
  19996.615  19996.700  0.500  -0.221670  7.164276  8.942159  6.546835
  19997.546  19997.600  0.500  -0.219435  7.159700  8.916499  6.494231
  19998.495  19998.500  0.500  -0.215480  7.158026  8.879221  6.427210
  19999.355  19999.400  0.500  -0.211615  7.156427  8.842992  6.350891
  20000.251  20000.300  0.500  -0.207207  7.151638  8.798211  6.260101
  20001.200  20001.200  0.500  -0.201269  7.149686  8.743739  6.138848
  20002.114  20002.100  0.500  -0.193677  7.146854  8.674163  5.984832
  20002.992  20003.000  0.500  -0.184307  7.145646  8.591815  5.794988
  20003.888  20003.900  0.500  -0.171737  7.142898  8.481229  5.539974
  20004.820  20004.800  0.500  -0.155078  7.138744  8.336263  5.235121
  20005.699  20005.700  0.500  -0.135380  7.136065  8.170596  4.910889
  20006.595  20006.600  0.500  -0.111450  7.132951  7.973911  4.562760
  20007.527  20007.500  0.500  -0.084195  7.128299  7.754458  4.214070
  20008.388  20008.400  0.500  -0.056361  7.138169  7.552035  3.914021
  20009.285  20009.300  0.500  -0.024505  7.136994  7.314049  3.621953
  20010.217  20010.200  0.500  0.014022  7.133706  7.034375  3.329520
  20011.096  20011.100  0.500  0.060037  7.131315  6.715773  3.050867
  20012.011  20012.000  0.500  0.117212  7.129658  6.341093  2.765498
  20012.925  20012.900  0.500  0.185557  7.125370  5.918630  2.472785
  20013.805  20013.800  0.500  0.261699  7.123912  5.483582  2.190630
  20014.685  20014.700  0.500  0.333176  7.121552  5.103618  1.949437
  20015.582  20015.600  0.500  0.401403  7.117851  4.764550  1.722857
  20016.497  20016.500  0.500  0.459688  7.115225  4.493125  1.525680
  20017.394  20017.400  0.500  0.500166  7.112161  4.313030  1.373405
  20018.292  20018.300  0.500  0.526683  7.107165  4.197210  1.249207
  20019.189  20019.200  0.500  0.542509  7.105935  4.130594  1.152878
  20020.087  20020.100  0.500  0.550804  7.101238  4.093766  1.081687
  20020.967  20021.000  0.500  0.555320  7.096672  4.072698  1.035531
  20021.883  20021.900  0.500  0.560488  7.095982  4.051313  1.004151
  20022.781  20022.800  0.500  0.566760  7.091830  4.023624  0.988379
  20023.644  20023.700  0.500  0.575574  7.089041  3.986747  0.984660
  20024.471  20024.500  0.500  0.586806  7.086524  3.940820  0.985974
  20027.536  20027.510  0.500  0.649938  7.079191  3.695889  0.978469
  20030.725  20030.700  0.500  0.710890  7.073141  3.474374  0.912589
  20034.109  20034.060  0.500  0.753426  7.066223  3.326433  0.849273
  20037.652  20037.580  0.500  0.777338  7.057970  3.244041  0.825194
  20041.339  20041.280  0.500  0.750333  7.046995  3.327656  0.828214
  20045.203  20045.150  0.500  0.690315  7.037353  3.528657  0.840982
  20049.209  20049.200  0.500  0.651570  7.024281  3.661244  0.835284
  20053.429  20053.410  0.500  0.621082  7.013134  3.768595  0.880134
  20057.793  20057.790  0.500  0.579901  7.002860  3.921278  0.989086
  20062.335  20062.350  0.500  0.563306  6.993377  3.981495  1.033413
  20067.091  20067.080  0.500  0.587534  6.979775  3.878632  0.988436
  20071.991  20071.980  0.500  0.614751  6.967008  3.767588  0.949199
  20077.124  20077.050  0.500  0.656877  6.953907  3.605379  0.921332
  20082.348  20082.290  0.500  0.700211  6.940299  3.445725  0.891316
  20087.681  20087.710  0.500  0.698140  6.923852  3.444685  0.868245
  20093.230  20093.290  0.500  0.681360  6.908935  3.495429  0.845832
  20099.047  20099.050  0.500  0.679149  6.894897  3.496045  0.869806
  20105.011  20104.980  0.500  0.664948  6.878880  3.537808  0.920789
  20111.049  20111.080  0.500  0.623733  6.861702  3.677461  0.955351
  20117.357  20117.350  0.500  0.591617  6.843460  3.787389  0.976884
  20123.847  20123.790  0.500  0.566381  6.827744  3.875264  0.994170
  20130.430  20130.400  0.500  0.572916  6.810620  3.840365  0.963510
  20137.213  20137.190  0.500  0.612405  6.793367  3.682316  0.914187
  20144.144  20144.150  0.500  0.642839  6.775595  3.562591  0.909600
  20151.293  20151.270  0.500  0.653787  6.756844  3.514050  0.933786
  20158.608  20158.570  0.500  0.646710  6.738525  3.529411  0.951716
  20166.018  20166.050  0.500  0.628376  6.717557  3.583532  0.966802
  20173.737  20173.690  0.500  0.621087  6.698461  3.599485  0.953849
  20181.569  20181.500  0.500  0.613563  6.678784  3.616017  0.951960
  20189.444  20189.490  0.500  0.591958  6.654972  3.681817  0.963893
  20197.718  20197.650  0.500  0.583791  6.638973  3.703085  0.925781
  20206.036  20205.970  0.500  0.584137  6.615516  3.688726  0.926442
  20214.432  20214.470  0.500  0.580492  6.594497  3.690433  0.992062
  20223.212  20223.150  0.500  0.574517  6.572923  3.700403  1.053583
  20231.982  20231.990  0.500  0.583612  6.550149  3.654193  1.022472
  20241.012  20241.000  0.500  0.598200  6.526814  3.588444  0.994132
  20250.229  20250.190  0.500  0.612275  6.503783  3.525806  0.955260
  20259.564  20259.550  0.500  0.611363  6.481453  3.516905  0.923781
  20269.123  20269.070  0.500  0.595642  6.457031  3.559173  0.929827
  20278.800  20278.770  0.500  0.573919  6.430848  3.622585  0.950197
  20288.649  20288.650  0.500  0.557534  6.407111  3.668838  0.984719
  20298.761  20298.690  0.500  0.556987  6.405011  3.669639  1.024006
  20308.938  20308.900  0.500  0.557780  6.379465  3.652106  1.043107
  20319.306  20319.290  0.500  0.567478  6.350262  3.600302  1.018458
  20329.902  20329.850  0.500  0.582127  6.325941  3.534357  0.972541
  20340.601  20340.580  0.500  0.589688  6.300982  3.493895  0.942884
  20351.547  20351.480  0.500  0.578006  6.271330  3.518316  0.946472
  20362.560  20362.550  0.500  0.565346  6.242016  3.546485  0.966176
  20373.877  20373.790  0.500  0.561062  6.213273  3.545312  0.973518
  20385.206  20385.210  0.500  0.550996  6.186197  3.565571  1.001963
  20396.804  20396.790  0.500  0.548923  6.158384  3.556907  1.003565
  20408.580  20408.550  0.500  0.553743  6.129449  3.523172  0.998840
  20420.534  20420.480  0.500  0.555972  6.096982  3.496706  0.984582
  20432.539  20432.580  0.500  0.553918  6.069533  3.488122  0.978777
  20444.907  20444.850  0.500  0.548991  6.035049  3.485437  0.982406
  20457.290  20457.290  0.500  0.544101  6.005367  3.485293  0.972829
  20469.946  20469.910  0.500  0.542658  5.971978  3.470920  0.971290
  20482.801  20482.690  0.500  0.542807  5.940962  3.452382  0.974475
  20495.674  20495.650  0.500  0.545697  5.908315  3.423501  0.981065
  20508.821  20508.780  0.500  0.544896  5.873661  3.406149  0.974932
  20522.077  20522.080  0.500  0.535208  5.835652  3.417052  0.978503
  20535.610  20535.550  0.500  0.530260  5.790050  3.407164  0.981128
  20549.254  20549.200  0.500  0.524410  5.774990  3.418242  0.985043
  20563.027  20563.010  0.500  0.522155  5.738350  3.404224  0.980850
  20577.080  20577.000  0.500  0.523738  5.667854  3.357083  0.969850
  20591.133  20591.160  0.500  0.527625  5.672281  3.346672  0.959434
  20605.560  20605.490  0.500  0.528503  5.632782  3.320451  0.951753
  20620.063  20619.990  0.500  0.523597  5.590472  3.311717  0.966157
  20634.699  20634.660  0.500  0.517821  5.563834  3.315029  0.973275
  20649.543  20649.500  0.500  0.513210  5.525230  3.307242  0.976318
  20664.559  20664.520  0.500  0.506891  5.480198  3.301082  0.973084
  20679.765  20679.700  0.500  0.504493  5.295040  3.197207  0.939845
  20695.107  20695.060  0.500  0.505411  5.415648  3.267030  0.962538
  20710.567  20710.590  0.500  0.506040  5.373042  3.239290  0.953254
  20726.370  20726.290  0.500  0.503475  5.336629  3.225600  0.949911
  20742.216  20742.160  0.500  0.500418  5.296436  3.211110  0.951971
  20758.257  20758.210  0.500  0.496802  5.252640  3.196093  0.957303
  20774.475  20774.420  0.500  0.493154  5.215951  3.185368  0.958992
  20790.870  20790.810  0.500  0.488929  5.176667  3.174760  0.961216
  20807.406  20807.370  0.500  0.487561  5.136989  3.154740  0.949640
  20824.177  20824.100  0.500  0.485828  5.095802  3.134873  0.944006
  20841.052  20841.000  0.500  0.483209  5.049212  3.114358  0.940815
  20852.432  20852.360  0.500  0.481292  5.025093  3.105430  0.938032