File: xdidata/Data/Mn/Mn-K-Johannsonite.xdi
# XDI/1.0 BlueSky/1.5.3
# Beamline.name: 6BM
# Beamline.xray_source: NSLS-II three-pole wiggler
# Beamline.collimation: paraboloid mirror, 5 nm Rh on 30 nm Pt
# Beamline.focusing: not in use
# Beamline.harmonic_rejection: flat mirror, Si stripe, pitch = 7.0 mrad relative to beam
# Detector.i0: 10 cm N2
# Detector.i1: 25 cm N2
# Detector.i2: 25 cm N2
# Element.symbol: Mn
# Element.edge: K
# Facility.name: NSLS-II
# Facility.energy: 3.0
# Facility.current: 399.4
# Facility.mode: top-off
# Facility.gup: 305081
# Facility.saf: 305123
# Mono.name: Si(111)
# Mono.d_spacing: 3.13532
# Mono.encoder_resolution: 0.0000050 deg/ct
# Mono.angle_offset: 16.0581 deg
# Mono.scan_mode: fixed exit
# Mono.scan_type: step
# Mono.direction: forward in energy
# Sample.name: CaMnSi2O6 - LT
# Sample.prep: Powder in polyethylene glycol pellet
# Sample.x_position: -120.140 mm
# Sample.y_position: 112.312 mm
# Scan.experimenters: Neil Hyatt, Martin Stennett, Lucy Mottram
# Scan.edge_energy: 6539.0
# Scan.start_time: 2019-11-11T13:22:12
# Scan.end_time: 2019-11-11T22:09:21
# Scan.transient_id: 17893
# Scan.uid: a6dae641-e6e0-43e5-a9c2-374a0dabe858
# Scan.plot_hint: ln(I0/It)  --  ln($5/$6)
# Scan.sequence: merge of 3 scans
# Column.1: energy eV
# Column.2: requested_energy eV
# Column.3: measurement_time seconds
# Column.4: mutrans
# Column.5: i0
# Column.6: itrans
# Column.7: irefer
# /////
#  B â€“ Iron Cap Mine; Graham Country, Arizona
# -----
# energy   requested_energy   measurement_time   mutrans   i0   itrans   irefer
6339 6339 0.500000 3.664017 44.9079 1.150974 0.267033
6379.02 6379 0.500000 3.587255 45.3853 1.256012 0.299810
6419.01 6419 0.500000 3.512454 45.8801 1.368311 0.334534
6459.01 6459 0.500000 3.438862 46.0665 1.478789 0.371557
6498.96 6499 0.500000 3.367727 46.5285 1.603644 0.412525
6514.99 6515 0.500000 3.340200 46.6592 1.653130 0.429372
6522.99 6523 0.500000 3.327094 46.7283 1.677305 0.436927
6529.09 6529.1 0.500000 3.318333 46.7663 1.693563 0.441276
6529.48 6529.5 0.500000 3.317883 46.7552 1.693930 0.441734
6529.89 6529.9 0.500000 3.317183 46.7476 1.694827 0.441631
6530.28 6530.3 0.500000 3.316579 46.7478 1.695862 0.441760
6530.69 6530.7 0.500000 3.316262 46.7432 1.696237 0.441761
6531.09 6531.1 0.500000 3.315749 46.7441 1.697130 0.441677
6531.49 6531.5 0.500000 3.315103 46.735 1.697912 0.441879
6531.89 6531.9 0.500000 3.314701 46.7339 1.698523 0.442079
6532.3 6532.3 0.500000 3.314214 46.7874 1.701315 0.442404
6532.7 6532.7 0.500000 3.313617 46.7948 1.702598 0.442311
6533.1 6533.1 0.500000 3.313290 46.849 1.705119 0.442813
6533.5 6533.5 0.500000 3.312958 46.8511 1.705777 0.442794
6533.9 6533.9 0.500000 3.312508 46.8489 1.706421 0.441865
6534.3 6534.3 0.500000 3.312401 46.8483 1.706627 0.441445
6534.7 6534.7 0.500000 3.311993 46.8451 1.707180 0.440945
6535.1 6535.1 0.500000 3.311821 46.8429 1.707410 0.440104
6535.5 6535.5 0.500000 3.311277 46.8332 1.707985 0.438298
6535.9 6535.9 0.500000 3.311367 46.8354 1.707912 0.436507
6536.3 6536.3 0.500000 3.311375 46.8412 1.708111 0.433590
6536.7 6536.7 0.500000 3.311569 46.8331 1.707504 0.427730
6537.1 6537.1 0.500000 3.312100 46.8285 1.706421 0.418124
6537.5 6537.5 0.500000 3.313045 46.8295 1.704843 0.403729
6537.9 6537.9 0.500000 3.315135 46.8234 1.701060 0.388093
6538.3 6538.3 0.500000 3.318606 46.8249 1.695225 0.374752
6538.7 6538.7 0.500000 3.321538 46.8237 1.690209 0.365507
6539.1 6539.1 0.500000 3.322640 46.8251 1.688400 0.358663
6539.5 6539.5 0.500000 3.322756 46.8758 1.690037 0.353735
6539.9 6539.9 0.500000 3.321217 46.8733 1.692546 0.350054
6540.3 6540.3 0.500000 3.318922 46.8804 1.696692 0.346726
6540.7 6540.7 0.500000 3.317728 46.8734 1.698460 0.344810
6541.1 6541.1 0.500000 3.317834 46.8672 1.698077 0.343162
6541.5 6541.5 0.500000 3.319746 46.8715 1.694957 0.341899
6541.9 6541.9 0.500000 3.322544 46.8648 1.689957 0.340383
6542.3 6542.3 0.500000 3.326745 46.8641 1.682868 0.337624
6542.7 6542.7 0.500000 3.333794 46.8656 1.671194 0.333264
6543.1 6543.1 0.500000 3.344308 46.8601 1.653374 0.326879
6543.5 6543.5 0.500000 3.359879 46.8482 1.627394 0.318811
6543.9 6543.9 0.500000 3.382699 46.8558 1.591304 0.309599
6544.3 6544.3 0.500000 3.415178 46.8482 1.540026 0.297060
6544.7 6544.7 0.500000 3.458952 46.8399 1.473583 0.281895
6545.1 6545.1 0.500000 3.511910 46.8843 1.399016 0.265029
6545.5 6545.5 0.500000 3.570232 46.8706 1.319482 0.247806
6545.9 6545.9 0.500000 3.626892 46.9164 1.248131 0.231833
6546.31 6546.3 0.500000 3.672766 46.906 1.191254 0.218317
6546.7 6546.7 0.500000 3.705672 46.8964 1.152837 0.208237
6547.1 6547.1 0.500000 3.729420 46.888 1.125680 0.200913
6547.5 6547.5 0.500000 3.747581 46.8742 1.105015 0.194716
6547.9 6547.9 0.500000 3.765758 46.8651 1.084806 0.188245
6548.3 6548.3 0.500000 3.791111 46.861 1.057620 0.181000
6548.7 6548.7 0.500000 3.827162 46.8579 1.020109 0.171961
6549.1 6549.1 0.500000 3.871244 46.8472 0.975863 0.162314
6549.51 6549.5 0.500000 3.920641 46.8443 0.928690 0.152684
6549.9 6549.9 0.500000 3.970831 46.8384 0.883483 0.143216
6550.3 6550.3 0.500000 4.017252 46.8404 0.843298 0.134887
6550.7 6550.7 0.500000 4.051677 46.8392 0.814721 0.128804
6551.1 6551.1 0.500000 4.065277 46.832 0.803556 0.125706
6551.49 6551.5 0.500000 4.052098 46.8289 0.814021 0.126131
6551.9 6551.9 0.500000 4.018521 46.8237 0.841989 0.128616
6552.3 6552.3 0.500000 3.979725 46.8189 0.875284 0.132320
6552.7 6552.7 0.500000 3.949641 46.8469 0.902386 0.135444
6553.1 6553.1 0.500000 3.928857 46.8467 0.921327 0.137397
6553.5 6553.5 0.500000 3.917070 46.8501 0.932252 0.138220
6553.9 6553.9 0.500000 3.918383 46.8506 0.931070 0.136632
6554.3 6554.3 0.500000 3.931942 46.8461 0.918414 0.134967
6554.7 6554.7 0.500000 3.954570 46.8487 0.897911 0.131747
6555.1 6555.1 0.500000 3.976625 46.8525 0.878494 0.128831
6555.5 6555.5 0.500000 3.987257 46.8517 0.869111 0.127487
6555.9 6555.9 0.500000 3.981889 46.8475 0.873742 0.128882
6556.3 6556.3 0.500000 3.960594 46.8474 0.892531 0.132665
6556.7 6556.7 0.500000 3.929695 46.8442 0.920530 0.137709
6557.1 6557.1 0.500000 3.893402 46.8378 0.954338 0.143750
6557.5 6557.5 0.500000 3.859588 46.8365 0.987165 0.149507
6557.9 6557.9 0.500000 3.828407 46.8376 1.018353 0.155167
6558.3 6558.3 0.500000 3.800019 46.8582 1.048051 0.160261
6558.7 6558.7 0.500000 3.773731 46.8759 1.076608 0.165301
6559.1 6559.1 0.500000 3.750874 46.9301 1.102685 0.169750
6559.5 6559.5 0.500000 3.732598 46.9255 1.122788 0.173557
6559.9 6559.9 0.500000 3.719360 46.9102 1.137526 0.176044
6560.3 6560.3 0.500000 3.708622 46.8737 1.148955 0.177629
6560.7 6560.7 0.500000 3.700955 46.8226 1.156538 0.179028
6561.1 6561.1 0.500000 3.695352 46.836 1.163325 0.179916
6561.5 6561.5 0.500000 3.691905 46.903 1.169024 0.180386
6561.9 6561.9 0.500000 3.689608 46.9186 1.172111 0.181167
6562.3 6562.3 0.500000 3.688011 46.9179 1.173964 0.180951
6562.7 6562.7 0.500000 3.687210 46.9163 1.174866 0.180908
6563.1 6563.1 0.500000 3.687208 46.9165 1.174878 0.180743
6563.5 6563.5 0.500000 3.688382 46.9192 1.173561 0.180369
6563.9 6563.9 0.500000 3.690586 46.9161 1.170912 0.179549
6564.3 6564.3 0.500000 3.692299 46.9172 1.168960 0.179979
6564.7 6564.7 0.500000 3.694944 46.9201 1.165911 0.178750
6565.1 6565.1 0.500000 3.697031 46.9216 1.163513 0.178858
6565.5 6565.5 0.500000 3.699687 46.9908 1.162155 0.178569
6565.9 6565.9 0.500000 3.702302 46.9892 1.159033 0.177650
6566.3 6566.3 0.500000 3.705898 46.9906 1.154953 0.176880
6566.7 6566.7 0.500000 3.709058 46.9877 1.151233 0.176330
6567.1 6567.1 0.500000 3.712667 46.9793 1.146899 0.175920
6567.5 6567.5 0.500000 3.715413 46.9851 1.143836 0.175675
6567.9 6567.9 0.500000 3.718535 46.9764 1.140129 0.174726
6568.3 6568.3 0.500000 3.720602 46.9759 1.137726 0.174895
6568.71 6568.7 0.500000 3.721799 46.9755 1.136367 0.174895
6570.09 6570.08 0.710000 3.712675 66.7093 1.628507 0.250641
6574.59 6574.58 0.760000 3.616704 71.4341 1.919409 0.294964
6579.4 6579.39 0.810000 3.598067 76.2792 2.088188 0.317362
6584.52 6584.51 0.860000 3.638311 81.1632 2.134279 0.321849
6589.94 6589.93 0.910000 3.698572 85.9203 2.127310 0.327331
6595.66 6595.65 0.960000 3.713007 90.7222 2.214003 0.346408
6601.69 6601.68 1.010000 3.688244 95.3083 2.384240 0.377244
6608.02 6608.01 1.060000 3.669153 100.303 2.557533 0.403218
6614.66 6614.65 1.110000 3.635954 105.095 2.770107 0.434352
6621.61 6621.6 1.160000 3.604092 109.911 2.990875 0.470042
6628.85 6628.84 1.210000 3.583644 114.645 3.184173 0.505745
6636.41 6636.4 1.260000 3.579889 119.539 3.332594 0.532309
6644.26 6644.26 1.310000 3.578169 124.311 3.471612 0.556762
6652.43 6652.42 1.360000 3.560981 129.182 3.670193 0.594737
6660.89 6660.89 1.410000 3.544044 134.235 3.878876 0.633656
6669.66 6669.66 1.460000 3.538182 139.082 4.042583 0.661452
6678.75 6678.74 1.510000 3.531734 143.977 4.211978 0.690158
6688.13 6688.12 1.560000 3.512999 148.804 4.435506 0.732209
6697.8 6697.8 1.610000 3.485517 153.604 4.706084 0.786332
6707.79 6707.79 1.660000 3.457986 158.396 4.988384 0.842459
6718.08 6718.09 1.710000 3.436814 163.377 5.255364 0.893287
6728.69 6728.69 1.760000 3.421005 168.306 5.500150 0.939847
6739.59 6739.6 1.810000 3.412325 173.056 5.704670 0.980458
6750.81 6750.81 1.860000 3.396451 177.737 5.952757 1.032426
6762.32 6762.32 1.910000 3.372013 182.436 6.261295 1.096954
6774.14 6774.14 1.960000 3.349881 187.03 6.562620 1.161069
6786.26 6786.27 2.010000 3.327911 191.65 6.874102 1.228551
6798.71 6798.7 2.060000 3.307397 196.145 7.181178 1.294595
6811.42 6811.43 2.110000 3.289032 188.455 7.027542 1.275659
6824.47 6824.47 2.160000 3.264574 204.211 7.803599 1.427335
6837.82 6837.82 2.210000 3.240094 209.185 8.191799 1.512720
6851.48 6851.47 2.260000 3.219242 213.561 8.539363 1.593260
6865.43 6865.42 2.310000 3.200043 217.915 8.882349 1.674553
6879.68 6879.68 2.360000 3.178785 222.308 9.256046 1.762488
6894.24 6894.24 2.410000 3.155142 227.369 9.693272 1.862577
6909.11 6909.11 2.460000 3.130016 231.749 10.1314 1.965319
6924.28 6924.28 2.510000 3.105739 235.776 10.5607 2.067896
6939.76 6939.76 2.560000 3.082089 239.996 11.0071 2.176772
6955.54 6955.54 2.610000 3.059713 244.126 11.4498 2.287000
6971.63 6971.63 2.660000 3.035960 248.24 11.9226 2.406631
6988.02 6988.02 2.710000 3.011312 252.687 12.4391 2.537533
7004.72 7004.72 2.760000 2.986829 256.662 12.9478 2.667969
7021.72 7021.72 2.810000 2.961966 260.481 13.4713 2.803736
7039.03 7039.03 2.860000 2.937597 264.55 14.0193 2.947839
7056.64 7056.64 2.910000 2.912827 268.221 14.5703 3.094938
7074.56 7074.56 2.960000 2.887553 270.121 15.0491 3.232095
7092.78 7092.78 3.010000 2.862299 276.383 15.7919 3.426452
7111.3 7111.3 3.060000 2.845094 279.904 16.2705 3.567102
7130.13 7130.13 3.110000 3.144569 270.535 11.6566 2.570455
7149.27 7149.27 3.160000 2.966539 278.922 14.3587 3.202656
7168.71 7168.71 3.210000 3.000821 283.422 14.0992 3.178999
7188.45 7188.45 3.260000 2.959461 286.087 14.8328 3.381613
7208.5 7208.5 3.310000 2.919751 290.704 15.6826 3.613313
7228.87 7228.86 3.360000 2.896763 295.085 16.2892 3.794335
7249.52 7249.52 3.410000 2.878266 298.487 16.7847 3.953590
7270.48 7270.48 3.460000 2.848483 303.254 17.5681 4.183029
7281.08 7281.08 3.490000 2.828207 300.236 17.7496 4.248657