File: xdidata/Data/Mn/Mn-K-Spessartine.xdi
# XDI/1.0 BlueSky/1.5.3
# Beamline.name: 6BM
# Beamline.xray_source: NSLS-II three-pole wiggler
# Beamline.collimation: paraboloid mirror, 5 nm Rh on 30 nm Pt
# Beamline.focusing: not in use
# Beamline.harmonic_rejection: flat mirror, Si stripe, pitch = 7.0 mrad relative to beam
# Detector.i0: 10 cm N2
# Detector.i1: 25 cm N2
# Detector.i2: 25 cm N2
# Element.symbol: Mn
# Element.edge: K
# Facility.name: NSLS-II
# Facility.energy: 3.0
# Facility.current: 399.7
# Facility.mode: top-off
# Facility.gup: 305081
# Facility.saf: 305123
# Mono.name: Si(111)
# Mono.d_spacing: 3.13532
# Mono.encoder_resolution: 0.0000050 deg/ct
# Mono.angle_offset: 16.0581 deg
# Mono.scan_mode: fixed exit
# Mono.scan_type: step
# Mono.direction: forward in energy
# Sample.name: Mn3Al2(SiO4)3
# Sample.prep: Powder in polyethylene glycol pellet
# Sample.x_position: -120.140 mm
# Sample.y_position: 112.312 mm
# Scan.experimenters: Neil Hyatt, Martin Stennett, Lucy Mottram
# Scan.edge_energy: 6539.0
# Scan.start_time: 2019-11-11T13:41:31
# Scan.end_time: 2019-11-11T22:48:03
# Scan.transient_id: 17894
# Scan.uid: 3c3b56e0-f380-49fa-96db-2a242cd35bb5
# Scan.plot_hint: ln(I0/It)  --  ln($5/$6)
# Scan.sequence: merge of 3 scans
# Column.1: energy eV
# Column.2: requested_energy eV
# Column.3: measurement_time seconds
# Column.4: mutrans
# Column.5: i0
# Column.6: itrans
# Column.7: irefer
# /////
#  Grants Mining District; New Mexico
# -----
# energy   requested_energy   measurement_time   mutrans   i0   itrans   irefer
6339 6339 0.500000 3.012415 44.7813 2.202049 0.510457
6379.02 6379 0.500000 2.944209 45.2621 2.382794 0.568138
6419.01 6419 0.500000 2.877738 45.7742 2.575340 0.629780
6459.01 6459 0.500000 2.812716 45.955 2.759214 0.693118
6498.97 6499 0.500000 2.750257 46.4205 2.966684 0.763072
6514.99 6515 0.500000 2.727270 46.5528 3.044424 0.790487
6522.99 6523 0.500000 2.716548 46.6277 3.081729 0.802519
6529.09 6529.1 0.500000 2.710440 46.6752 3.104238 0.808813
6529.48 6529.5 0.500000 2.710080 46.7187 3.108258 0.809846
6529.89 6529.9 0.500000 2.709596 46.7499 3.111829 0.810864
6530.28 6530.3 0.500000 2.709402 46.7509 3.112515 0.810721
6530.69 6530.7 0.500000 2.709148 46.7447 3.112875 0.810351
6531.09 6531.1 0.500000 2.708821 46.7478 3.114082 0.810381
6531.49 6531.5 0.500000 2.708717 46.7439 3.114166 0.810339
6531.89 6531.9 0.500000 2.708482 46.7492 3.115265 0.810543
6532.3 6532.3 0.500000 2.708235 46.7454 3.115775 0.810107
6532.7 6532.7 0.500000 2.708123 46.7519 3.116552 0.809723
6533.1 6533.1 0.500000 2.707921 46.7436 3.116638 0.809146
6533.5 6533.5 0.500000 2.708195 46.7418 3.115691 0.808253
6533.89 6533.9 0.500000 2.708016 46.7419 3.116216 0.807195
6534.3 6534.3 0.500000 2.707976 46.7377 3.116071 0.806489
6534.7 6534.7 0.500000 2.708205 46.7349 3.115155 0.804979
6535.1 6535.1 0.500000 2.708478 46.7287 3.113904 0.802860
6535.5 6535.5 0.500000 2.708658 46.7302 3.113446 0.799520
6535.9 6535.9 0.500000 2.709098 46.7286 3.111968 0.795456
6536.3 6536.3 0.500000 2.709728 46.732 3.110234 0.788865
6536.7 6536.7 0.500000 2.710580 46.7259 3.107188 0.778709
6537.1 6537.1 0.500000 2.711777 46.7233 3.103325 0.760865
6537.5 6537.5 0.500000 2.713855 46.7251 3.096957 0.732928
6537.9 6537.9 0.500000 2.717573 46.7163 3.084976 0.703423
6538.3 6538.3 0.500000 2.723646 46.7191 3.066517 0.678140
6538.7 6538.7 0.500000 2.731545 46.717 3.042107 0.657425
6539.1 6539.1 0.500000 2.736777 46.743 3.027906 0.643028
6539.5 6539.5 0.500000 2.735636 46.7718 3.033238 0.634732
6539.9 6539.9 0.500000 2.730720 46.7749 3.048372 0.629796
6540.3 6540.3 0.500000 2.726937 46.7772 3.060085 0.625796
6540.7 6540.7 0.500000 2.726261 46.7806 3.062409 0.621098
6541.1 6541.1 0.500000 2.727756 46.831 3.061124 0.618535
6541.5 6541.5 0.500000 2.731049 46.8331 3.051223 0.615099
6541.9 6541.9 0.500000 2.735651 46.8351 3.037269 0.611691
6542.3 6542.3 0.500000 2.742359 46.9044 3.021467 0.605805
6542.7 6542.7 0.500000 2.751369 46.9075 2.994804 0.596610
6543.1 6543.1 0.500000 2.765305 46.911 2.953373 0.583159
6543.5 6543.5 0.500000 2.785628 46.9014 2.893523 0.566469
6543.9 6543.9 0.500000 2.814662 46.9044 2.810740 0.546294
6544.3 6544.3 0.500000 2.855951 46.9033 2.697404 0.520340
6544.7 6544.7 0.500000 2.912286 46.9005 2.549378 0.487886
6545.1 6545.1 0.500000 2.983854 46.8918 2.372009 0.449673
6545.5 6545.5 0.500000 3.070153 46.8951 2.175225 0.407587
6545.9 6545.9 0.500000 3.173070 46.8871 1.963762 0.364233
6546.3 6546.3 0.500000 3.290916 46.8841 1.744512 0.319573
6546.7 6546.7 0.500000 3.410432 46.8835 1.548434 0.280032
6547.1 6547.1 0.500000 3.512066 46.8816 1.398733 0.249639
6547.5 6547.5 0.500000 3.592045 46.8702 1.290912 0.227223
6547.9 6547.9 0.500000 3.657789 46.8753 1.208701 0.209532
6548.3 6548.3 0.500000 3.729087 46.8665 1.125801 0.192241
6548.7 6548.7 0.500000 3.822531 46.8694 1.024719 0.172908
6549.1 6549.1 0.500000 3.937770 46.8643 0.913474 0.152036
6549.5 6549.5 0.500000 4.060741 46.8551 0.807172 0.132290
6549.9 6549.9 0.500000 4.174994 46.8541 0.720608 0.116533
6550.3 6550.3 0.500000 4.274009 46.8513 0.652657 0.103857
6550.7 6550.7 0.500000 4.345787 46.8508 0.607437 0.095924
6551.1 6551.1 0.500000 4.385055 46.8424 0.583763 0.091253
6551.5 6551.5 0.500000 4.385532 46.8386 0.583415 0.089919
6551.9 6551.9 0.500000 4.346944 46.8341 0.606228 0.092653
6552.3 6552.3 0.500000 4.287592 46.8865 0.644358 0.097506
6552.7 6552.7 0.500000 4.236524 46.8926 0.678050 0.101711
6553.1 6553.1 0.500000 4.205606 46.8918 0.699257 0.103930
6553.5 6553.5 0.500000 4.185322 46.8883 0.713487 0.105454
6553.9 6553.9 0.500000 4.154898 46.8887 0.735539 0.107933
6554.3 6554.3 0.500000 4.101928 46.9434 0.776247 0.113496
6554.69 6554.7 0.500000 4.028352 46.9415 0.835284 0.122339
6555.1 6555.1 0.500000 3.935273 46.998 0.918054 0.134473
6555.5 6555.5 0.500000 3.825745 47.0042 1.025174 0.150890
6555.9 6555.9 0.500000 3.712507 47.0007 1.147863 0.169698
6556.3 6556.3 0.500000 3.610781 47.001 1.270471 0.188601
6556.7 6556.7 0.500000 3.525826 46.9945 1.382343 0.206441
6557.11 6557.1 0.500000 3.462665 46.9967 1.473522 0.221166
6557.5 6557.5 0.500000 3.422642 46.9923 1.533314 0.231572
6557.9 6557.9 0.500000 3.401888 46.9877 1.565072 0.237792
6558.3 6558.3 0.500000 3.390050 46.9841 1.583722 0.241589
6558.7 6558.7 0.500000 3.378315 46.9784 1.602230 0.245423
6559.1 6559.1 0.500000 3.365269 46.9753 1.623046 0.249660
6559.5 6559.5 0.500000 3.353339 46.9714 1.642436 0.253011
6559.9 6559.9 0.500000 3.344363 46.9607 1.656957 0.255836
6560.3 6560.3 0.500000 3.334641 46.9123 1.671309 0.258078
6560.7 6560.7 0.500000 3.323923 46.8696 1.687865 0.260978
6561.1 6561.1 0.500000 3.314048 46.8748 1.704692 0.263195
6561.5 6561.5 0.500000 3.307586 46.9528 1.718647 0.265144
6561.9 6561.9 0.500000 3.305005 46.9554 1.723232 0.265619
6562.3 6562.3 0.500000 3.305180 46.9568 1.722981 0.264987
6562.7 6562.7 0.500000 3.306785 46.9571 1.720189 0.264883
6563.1 6563.1 0.500000 3.310732 46.9555 1.713321 0.263187
6563.5 6563.5 0.500000 3.317377 46.9557 1.702019 0.261224
6563.9 6563.9 0.500000 3.328376 46.96 1.683686 0.258102
6564.3 6564.3 0.500000 3.342040 46.9576 1.660778 0.254685
6564.7 6564.7 0.500000 3.355222 46.9593 1.638876 0.251082
6565.1 6565.1 0.500000 3.364966 46.9548 1.622900 0.248427
6565.5 6565.5 0.500000 3.369642 47.0063 1.617131 0.247830
6565.9 6565.9 0.500000 3.370687 47.0011 1.615239 0.247682
6566.3 6566.3 0.500000 3.368693 46.9992 1.618392 0.247643
6566.7 6566.7 0.500000 3.364636 47.0005 1.624996 0.248973
6567.1 6567.1 0.500000 3.360472 46.9996 1.631756 0.250184
6567.5 6567.5 0.500000 3.355315 47.0554 1.642164 0.251544
6567.9 6567.9 0.500000 3.350530 47.0551 1.650032 0.252767
6568.3 6568.3 0.500000 3.345416 47.1065 1.660283 0.254830
6568.7 6568.7 0.500000 3.340245 47.0994 1.668670 0.256268
6570.1 6570.08 0.710000 3.327937 66.8985 2.399462 0.368954
6574.58 6574.58 0.760000 3.351614 71.6237 2.508919 0.385905
6579.4 6579.39 0.810000 3.445777 76.4004 2.435865 0.370203
6584.52 6584.51 0.860000 3.576752 81.1706 2.270078 0.342350
6589.94 6589.93 0.910000 3.543507 85.931 2.484438 0.381010
6595.66 6595.65 0.960000 3.506262 90.7276 2.722576 0.425719
6601.69 6601.68 1.010000 3.433259 95.3227 3.077152 0.485793
6608.02 6608.01 1.060000 3.417308 100.335 3.291063 0.518681
6614.66 6614.65 1.110000 3.378732 105.158 3.584899 0.560656
6621.6 6621.6 1.160000 3.375489 109.985 3.761621 0.590554
6628.85 6628.84 1.210000 3.349483 114.729 4.027256 0.638358
6636.41 6636.4 1.260000 3.369246 119.642 4.117584 0.656552
6644.26 6644.26 1.310000 3.385943 124.441 4.211797 0.674504
6652.43 6652.42 1.360000 3.364570 129.27 4.469775 0.724708
6660.89 6660.89 1.410000 3.337575 134.254 4.769039 0.778224
6669.67 6669.66 1.460000 3.331092 139.045 4.971421 0.812197
6678.75 6678.74 1.510000 3.298633 144.02 5.319161 0.870550
6688.13 6688.12 1.560000 3.275636 148.939 5.628835 0.928325
6697.81 6697.8 1.610000 3.257602 153.769 5.917163 0.988144
6707.8 6707.79 1.660000 3.252514 158.552 6.132263 1.035410
6718.09 6718.09 1.710000 3.227440 163.286 6.475785 1.100455
6728.69 6728.69 1.760000 3.202254 168.051 6.834653 1.167235
6739.59 6739.6 1.810000 3.202431 172.751 7.024539 1.206515
6750.8 6750.81 1.860000 3.173774 177.449 7.425274 1.286882
6762.32 6762.32 1.910000 3.156343 182.06 7.752349 1.357460
6774.14 6774.14 1.960000 3.129936 186.706 8.162897 1.443041
6786.27 6786.27 2.010000 3.102174 191.306 8.599496 1.535890
6798.71 6798.7 2.060000 3.081699 195.782 8.982712 1.618603
6811.43 6811.43 2.110000 3.069333 188.018 8.733831 1.585430
6824.47 6824.47 2.160000 3.047268 203.806 9.678245 1.769722
6837.82 6837.82 2.210000 3.025110 209.023 10.1486 1.873801
6851.48 6851.47 2.260000 3.000694 213.66 10.63 1.983051
6865.43 6865.42 2.310000 2.977880 217.966 11.0945 2.091504
6879.68 6879.68 2.360000 2.953564 222.185 11.5876 2.206384
6894.24 6894.24 2.410000 2.932100 226.965 12.0937 2.322963
6909.11 6909.11 2.460000 2.911712 231.268 12.5768 2.439073
6924.28 6924.28 2.510000 2.885175 235.257 13.1378 2.571324
6939.76 6939.76 2.560000 2.862914 239.537 13.6779 2.703948
6955.54 6955.54 2.610000 2.839031 243.636 14.2482 2.846325
6971.63 6971.63 2.660000 2.813834 247.752 14.8586 2.998865
6988.02 6988.02 2.710000 2.792525 252.099 15.445 3.150875
7004.72 7004.72 2.760000 2.768649 256.128 16.0709 3.311705
7021.72 7021.72 2.810000 2.742268 260.686 16.7943 3.494754
7039.03 7039.03 2.860000 2.717512 264.428 17.4624 3.671559
7056.64 7056.64 2.910000 2.693541 268.217 18.1424 3.854393
7074.56 7074.56 2.960000 2.668885 269.761 18.7022 4.016760
7092.78 7092.78 3.010000 2.646048 275.832 19.5649 4.247317
7111.3 7111.3 3.060000 2.632825 279.274 20.0727 4.400554
7130.13 7130.13 3.110000 2.973745 269.73 13.7866 3.041373
7149.27 7149.27 3.160000 2.842953 277.868 16.1865 3.610960
7168.72 7168.71 3.210000 2.880126 282.144 15.8358 3.571199
7188.45 7188.45 3.260000 2.827316 284.776 16.8504 3.840066
7208.5 7208.5 3.310000 2.804608 289.798 17.5413 4.041394
7228.87 7228.86 3.360000 2.782125 293.757 18.1853 4.237287
7249.52 7249.52 3.410000 2.755111 296.812 18.8776 4.445398
7270.48 7270.48 3.460000 2.723325 301.646 19.8046 4.716439
7281.08 7281.08 3.490000 2.712514 298.683 19.8232 4.746379