File: xdidata/Data/Mn/Mn-K-Mn3O4.xdi
# XDI/1.0 BlueSky/1.5.3
# Beamline.name: 6BM
# Beamline.xray_source: NSLS-II three-pole wiggler
# Beamline.collimation: paraboloid mirror, 5 nm Rh on 30 nm Pt
# Beamline.focusing: not in use
# Beamline.harmonic_rejection: flat mirror, Si stripe, pitch = 7.0 mrad relative to beam
# Detector.i0: 10 cm N2
# Detector.I1: 25 cm N2
# Detector.I2: 25 cm N2
# Element.symbol: Mn
# Element.edge: K
# Facility.name: NSLS-II
# Facility.energy: 3.0
# Facility.current: 400.7
# Facility.mode: top-off
# Facility.GUP: 305832
# Facility.SAF: 305669
# Facility.cycle: 2020-1
# Mono.name: Si(111)
# Mono.d_spacing: 3.13532
# Mono.encoder_resolution: 0.0000050 deg/ct
# Mono.angle_offset: 16.0581 deg
# Mono.scan_mode: fixed exit
# Mono.scan_type: step
# Mono.direction: forward in energy
# Sample.name: Mn3O4
# Sample.prep: Powder in polyethylene glycol pellet
# Sample.x_position: -2.106 mm
# Sample.y_position: 103.734 mm
# Scan.experimenters: Neil Hyatt, Martin Stennett, Dan Austin, Seb Lawson
# Scan.edge_energy: 6539.0
# Scan.start_time: 2020-03-03T18:49:47
# Scan.end_time: 2020-03-03T19:01:39
# Scan.transient_id: 22670
# Scan.uid: c353bdda-aa47-43ee-b046-8776d13863b4
# Scan.plot_hint: ln(i0/itrans)  --  ln($5/$6)
# Column.1: energy eV
# Column.2: requested_energy eV
# Column.3: measurement_time seconds
# Column.4: mutrans
# Column.5: i0
# Column.6: itrans
# Column.7: irefer
# ///////////
#
# -----------
#  energy  requested_energy  measurement_time  mutrans  i0  itrans  irefer
6339.005  6339.000  1.000  1.891328  127.513  19.2381  1.498419
6369.012  6369.000  1.000  1.856104  127.734  19.9623  1.595750
6399.012  6399.000  1.000  1.821232  127.954  20.7063  1.713251
6429.013  6429.000  1.000  1.787041  128.056  21.4436  1.835252
6459.011  6459.000  1.000  1.753946  126.973  21.9778  1.940713
6489.003  6489.000  1.000  1.723913  128.151  22.8579  2.065228
6511.002  6511.000  1.000  1.707070  128.132  23.2427  2.128933
6516.998  6517.000  1.000  1.705139  128.136  23.2884  2.119936
6522.998  6523.000  1.000  1.705744  128.071  23.2624  2.096800
6529.000  6529.000  1.000  1.712531  128.064  23.1038  2.026847
6529.736  6529.750  1.000  1.714237  127.933  23.0408  2.008710
6530.491  6530.500  1.000  1.716363  127.849  22.9768  2.003089
6531.237  6531.250  1.000  1.718647  127.78  22.912  1.969735
6531.991  6532.000  1.000  1.721418  127.751  22.8434  1.946249
6532.745  6532.750  1.000  1.724739  127.679  22.7548  1.910777
6533.497  6533.500  1.000  1.728715  127.624  22.6548  1.863497
6534.250  6534.250  1.000  1.733743  127.581  22.5336  1.812966
6534.995  6535.000  1.000  1.739945  127.504  22.3808  1.737188
6535.746  6535.750  1.000  1.748213  127.432  22.184  1.620607
6536.497  6536.500  1.000  1.760056  127.575  21.9473  1.450747
6537.254  6537.250  1.000  1.780397  127.707  21.5277  1.108666
6538.002  6538.000  1.000  1.825000  127.642  20.5782  0.600554
6538.749  6538.750  1.000  1.951312  127.65  18.1374  0.292529
6539.506  6539.500  1.000  2.103595  127.637  15.5739  0.169621
6540.258  6540.250  1.000  2.036136  127.58  16.6533  0.137430
6541.003  6541.000  1.000  2.045568  127.594  16.4988  0.111677
6541.752  6541.750  1.000  2.108567  127.576  15.4893  0.101689
6542.503  6542.500  1.000  2.180653  127.55  14.409  0.103283
6543.277  6543.250  1.000  2.286890  127.528  12.9546  0.079126
6544.068  6544.000  1.000  2.449387  127.527  11.0115  0.051631
6544.751  6544.750  1.000  2.691545  127.493  8.640953  0.047790
6545.492  6545.500  1.000  3.067964  127.52  5.931711  0.030855
6546.249  6546.250  1.000  3.584578  127.494  3.537755  0.019632
6546.999  6547.000  1.000  4.022235  127.494  2.283791  0.014998
6547.750  6547.750  1.000  4.319008  127.496  1.697371  0.010423
6548.500  6548.500  1.000  4.605582  127.48  1.274275  0.009265
6549.249  6549.250  1.000  4.905012  127.474  0.944501  0.007823
6550.000  6550.000  1.000  5.216263  127.469  0.691848  0.000931
6550.755  6550.750  1.000  5.504463  127.467  0.518610  0.009671
6551.499  6551.500  1.000  5.704588  127.5  0.424659  0.010857
6552.248  6552.250  1.000  5.797506  127.431  0.386768  0.008508
6553.002  6553.000  1.000  5.871614  127.441  0.359168  -0.001545
6553.750  6553.750  1.000  5.987364  127.458  0.319954  0.004628
6554.502  6554.500  1.000  6.147507  127.434  0.272556  0.012321
6555.247  6555.250  1.000  6.380108  127.453  0.216025  0.008417
6555.995  6556.000  1.000  6.669718  127.432  0.161681  0.009178
6556.755  6556.750  1.000  6.950402  127.852  0.122514  0.013835
6557.502  6557.500  1.000  7.179136  127.843  0.097458  0.011566
6558.250  6558.250  1.000  7.233822  127.833  0.092264  0.007465
6559.001  6559.000  1.000  7.123833  127.865  0.103018  0.012375
6559.747  6559.750  1.000  6.888309  127.848  0.130358  0.008938
6560.502  6560.500  1.000  6.623245  127.752  0.169797  0.008966
6561.256  6561.250  1.000  6.402350  127.585  0.211493  0.006272
6562.001  6562.000  1.000  6.235660  127.772  0.250221  0.006232
6562.749  6562.750  1.000  6.103300  127.778  0.285645  0.006927
6563.500  6563.500  1.000  6.020168  127.802  0.310464  0.008395
6564.250  6564.250  1.000  5.995921  127.807  0.318095  0.009602
6565.005  6565.000  1.000  6.008228  127.778  0.314135  0.007155
6565.749  6565.750  1.000  6.042475  127.806  0.303626  0.009914
6566.496  6566.500  1.000  6.090281  127.776  0.289384  0.009201
6567.255  6567.250  1.000  6.139032  127.812  0.275692  0.008863
6568.003  6568.000  1.000  6.177990  127.768  0.265066  0.009271
6568.751  6568.750  1.000  6.197572  127.784  0.259960  0.008195
6571.198  6571.180  1.000  6.084710  127.824  0.291109  0.009027
6574.582  6574.580  1.000  5.905075  127.837  0.348431  0.009587
6578.172  6578.160  1.000  5.732662  127.82  0.413937  0.009032
6581.920  6581.910  1.000  5.460350  127.871  0.543717  0.009180
6585.834  6585.830  1.000  5.380109  127.887  0.589215  0.008790
6589.940  6589.930  1.000  5.424108  127.878  0.563815  0.009593
6594.201  6594.190  1.000  5.548829  127.944  0.497958  0.011037
6598.640  6598.630  1.000  5.729292  128  0.415919  0.009469
6603.248  6603.240  1.000  5.741711  128.033  0.410891  0.008433
6608.022  6608.010  1.000  5.809567  128.131  0.384231  0.007542
6612.978  6612.970  1.000  5.872629  128.237  0.361048  0.010380
6618.099  6618.090  1.000  5.842946  128.289  0.372075  0.007674
6623.392  6623.380  1.000  5.786353  128.823  0.395378  0.005386
6628.846  6628.840  1.000  5.754131  128.721  0.408002  0.009412
6634.486  6634.480  1.000  5.731463  129.036  0.418379  0.011509
6640.296  6640.290  1.000  5.734522  129.093  0.417283  0.015757
6646.275  6646.270  1.000  5.645571  129.194  0.456458  0.008249
6652.427  6652.420  1.000  5.586605  129.272  0.484476  0.014606
6658.744  6658.740  1.000  5.605116  129.329  0.475799  0.006895
6665.231  6665.230  1.000  5.608177  129.416  0.474664  0.005770
6671.904  6671.900  1.000  5.564469  129.464  0.496056  0.004541
6678.748  6678.740  1.000  5.483077  129.469  0.538141  0.017366
6685.747  6685.740  1.000  5.505233  129.498  0.526468  0.017890
6692.930  6692.920  1.000  5.543113  129.464  0.506765  0.009918
6700.276  6700.270  1.000  5.551741  129.4  0.502164  0.011680
6707.799  6707.790  1.000  5.569177  129.305  0.493120  0.008796
6715.501  6715.490  1.000  5.568158  129.254  0.493429  0.008897
6723.365  6723.350  1.000  5.515138  129.095  0.519654  0.008504
6731.401  6731.390  1.000  5.426568  128.954  0.567160  0.011081
6739.596  6739.600  1.000  5.374702  128.706  0.596206  0.014415
6747.978  6747.980  1.000  5.388571  128.463  0.586883  0.001102
6756.544  6756.530  1.000  5.383058  128.207  0.588949  0.009437
6765.260  6765.250  1.000  5.364732  127.868  0.598258  0.007037
6774.134  6774.140  1.000  5.304698  127.49  0.633396  0.007020
6783.224  6783.210  1.000  5.268773  127.081  0.654456  -0.000563
6792.449  6792.450  1.000  5.250166  126.537  0.663892  0.010255
6801.870  6801.850  1.000  5.250955  125.966  0.660378  0.011228
6811.413  6811.430  1.000  5.245034  119.88  0.632204  0.014688
6821.167  6821.180  1.000  5.254787  123.911  0.647119  0.013018
6831.097  6831.110  1.000  5.214838  123.886  0.673359  0.010056
6841.183  6841.200  1.000  5.167333  114.573  0.653037  0.010582
6851.452  6851.470  1.000  5.118058  122.358  0.732638  0.019585
6861.889  6861.900  1.000  5.097357  121.345  0.741766  0.007295
6872.499  6872.510  1.000  5.092014  120.61  0.741226  0.006867
6883.282  6883.290  1.000  5.073248  119.942  0.751081  0.015685
6894.232  6894.240  1.000  5.061427  119.186  0.755224  0.008084
6905.352  6905.360  1.000  5.021115  118.258  0.780169  0.006720
6916.646  6916.660  1.000  4.974888  117.116  0.809191  -0.001471
6928.104  6928.120  1.000  4.952218  116.011  0.819935  0.011489
6939.740  6939.760  1.000  4.938611  114.881  0.823070  0.009515
6951.558  6951.570  1.000  4.931766  113.778  0.820769  0.004590
6963.568  6963.550  1.000  4.916209  112.651  0.825380  0.008093
6975.697  6975.700  1.000  4.889692  111.49  0.838824  0.012992
6988.005  6988.020  1.000  4.859572  110.366  0.855753  0.001441
7000.521  7000.520  1.000  4.822933  109.209  0.878389  0.008235
7013.195  7013.180  1.000  4.789918  108.085  0.898529  0.006726
7026.033  7026.020  1.000  4.765470  106.926  0.910892  0.006817
7039.046  7039.030  1.000  4.745986  105.8  0.919027  0.016440
7052.231  7052.210  1.000  4.730307  104.645  0.923366  0.007082
7065.572  7065.560  1.000  4.705006  103.63  0.937833  0.009359
7079.067  7079.080  1.000  4.675338  102.597  0.956450  0.009902
7092.763  7092.780  1.000  4.650680  101.588  0.970685  0.006265
7106.626  7106.640  1.000  4.624100  100.688  0.988001  0.007331
7120.666  7120.680  1.000  4.594859  99.1349  1.001624  0.016934
7134.874  7134.890  1.000  4.571026  93.6907  0.969449  0.014815
7149.268  7149.270  1.000  4.549793  94.4775  0.998570  0.011203
7163.800  7163.820  1.000  4.528014  94.2111  1.017679  0.009521
7178.523  7178.540  1.000  4.499980  93.1968  1.035343  0.008293
7193.433  7193.440  1.000  4.469562  92.5476  1.059885  0.008601
7208.484  7208.500  1.000  4.441629  92.1912  1.085712  0.010859
7223.730  7223.740  1.000  4.415207  91.8357  1.110481  0.009511
7239.131  7239.150  1.000  4.387813  91.2005  1.133429  0.008971
7254.712  7254.730  1.000  4.362468  90.3928  1.152227  0.015041
7270.457  7270.480  1.000  4.340082  90.4437  1.178975  0.007962
7281.070  7281.080  1.000  4.324770  89.6905  1.187196  0.012403