File: xdidata/Data/Mn/Mn-K-WolframiteA.xdi
# XDI/1.0 BlueSky/1.5.3
# Beamline.name: 6BM
# Beamline.xray_source: NSLS-II three-pole wiggler
# Beamline.collimation: paraboloid mirror, 5 nm Rh on 30 nm Pt
# Beamline.focusing: not in use
# Beamline.harmonic_rejection: flat mirror, Si stripe, pitch = 7.0 mrad relative to beam
# Detector.i0: 10 cm N2
# Detector.i1: 25 cm N2
# Detector.i2: 25 cm N2
# Element.symbol: Mn
# Element.edge: K
# Facility.name: NSLS-II
# Facility.energy: 3.0
# Facility.current: 400.5
# Facility.mode: top-off
# Facility.gup: 305081
# Facility.saf: 305123
# Mono.name: Si(111)
# Mono.d_spacing: 3.13532
# Mono.encoder_resolution: 0.0000050 deg/ct
# Mono.angle_offset: 16.0581 deg
# Mono.scan_mode: fixed exit
# Mono.scan_type: step
# Mono.direction: forward in energy
# Sample.name: (Fe,Mn)WO4
# Sample.prep: Powder in polyethylene glycol pellet
# Sample.x_position: -120.140 mm
# Sample.y_position: 112.312 mm
# Scan.experimenters: Neil Hyatt, Martin Stennett, Lucy Mottram
# Scan.edge_energy: 6539.0
# Scan.start_time: 2019-11-11T16:36:13
# Scan.end_time: 2019-11-12T02:01:41
# Scan.transient_id: 17903
# Scan.uid: b79577cf-ac8c-48fa-a540-17be9d04a3cc
# Scan.plot_hint: ln(I0/It)  --  ln($5/$6)
# Scan.sequence: merge of 3 scans
# Column.1: energy eV
# Column.2: requested_energy eV
# Column.3: measurement_time seconds
# Column.4: mutrans
# Column.5: i0
# Column.6: itrans
# Column.7: irefer
# /////
#  Cumberland, Amber â€“ ID
# -----
# energy   requested_energy   measurement_time   mutrans   i0   itrans   irefer
6339 6339 0.500000 4.286224 89.701 1.234002 0.282870
6379.02 6379 0.500000 4.219399 90.4037 1.329607 0.313500
6419.01 6419 0.500000 4.153477 91.1531 1.431976 0.346573
6459.01 6459 0.500000 4.089213 91.5119 1.533043 0.380708
6499 6499 0.500000 4.026037 92.4146 1.649114 0.420060
6514.99 6515 0.500000 4.002031 92.6547 1.693575 0.434947
6523.26 6523 0.500000 3.989090 92.7922 1.718331 0.442678
6529.09 6529.1 0.500000 3.979557 92.8792 1.736278 0.448317
6529.49 6529.5 0.500000 3.978891 92.8576 1.737015 0.448131
6529.89 6529.9 0.500000 3.978286 92.8594 1.738108 0.448232
6530.28 6530.3 0.500000 3.977463 92.8639 1.739623 0.448774
6530.69 6530.7 0.500000 3.976920 92.8574 1.740440 0.448926
6531.09 6531.1 0.500000 3.976293 92.8557 1.741503 0.448390
6531.49 6531.5 0.500000 3.975612 92.8651 1.742882 0.448591
6531.89 6531.9 0.500000 3.975010 92.9636 1.745759 0.449527
6532.3 6532.3 0.500000 3.974496 92.9656 1.746718 0.449559
6532.7 6532.7 0.500000 3.973826 92.9567 1.747693 0.449408
6533.1 6533.1 0.500000 3.973204 92.9474 1.748595 0.449557
6533.5 6533.5 0.500000 3.972404 92.9558 1.750164 0.449349
6533.9 6533.9 0.500000 3.972000 92.9345 1.750507 0.449137
6534.3 6534.3 0.500000 3.971491 92.9293 1.751266 0.448673
6534.7 6534.7 0.500000 3.970665 92.9314 1.752760 0.448211
6535.1 6535.1 0.500000 3.970334 92.9171 1.753066 0.447101
6535.5 6535.5 0.500000 3.969557 92.9143 1.754377 0.446241
6535.9 6535.9 0.500000 3.968800 92.8977 1.755384 0.444612
6536.3 6536.3 0.500000 3.968278 92.8803 1.755971 0.441480
6536.7 6536.7 0.500000 3.967642 92.9947 1.759260 0.436910
6537.1 6537.1 0.500000 3.967301 92.9888 1.759751 0.427668
6537.5 6537.5 0.500000 3.966638 92.9749 1.760654 0.413545
6537.9 6537.9 0.500000 3.966109 92.9784 1.761663 0.398377
6538.3 6538.3 0.500000 3.965160 93.0705 1.765072 0.386939
6538.7 6538.7 0.500000 3.964685 93.0592 1.765702 0.378375
6539.1 6539.1 0.500000 3.964062 93.0617 1.766843 0.372322
6539.5 6539.5 0.500000 3.963473 93.0536 1.767739 0.366956
6539.9 6539.9 0.500000 3.963255 93.0418 1.767899 0.362277
6540.3 6540.3 0.500000 3.962550 93.0423 1.769160 0.358358
6540.7 6540.7 0.500000 3.961544 93.034 1.770760 0.356178
6541.1 6541.1 0.500000 3.961316 93.0353 1.771207 0.354367
6541.5 6541.5 0.500000 3.960478 93.0355 1.772690 0.354130
6541.9 6541.9 0.500000 3.959986 93.019 1.773255 0.353604
6542.3 6542.3 0.500000 3.959431 93.0175 1.774204 0.352626
6542.7 6542.7 0.500000 3.959044 93.0147 1.774848 0.350517
6543.1 6543.1 0.500000 3.958331 93.0031 1.775883 0.347269
6543.5 6543.5 0.500000 3.958053 92.9988 1.776300 0.344562
6543.9 6543.9 0.500000 3.957348 92.9862 1.777311 0.342586
6544.3 6544.3 0.500000 3.957200 92.9836 1.777521 0.339845
6544.7 6544.7 0.500000 3.956851 93.0206 1.778849 0.337468
6545.1 6545.1 0.500000 3.956547 93.046 1.779863 0.334607
6545.5 6545.5 0.500000 3.956486 93.0497 1.780060 0.330601
6545.9 6545.9 0.500000 3.955982 93.0369 1.780730 0.327362
6546.3 6546.3 0.500000 3.955954 93.034 1.780707 0.323534
6546.7 6546.7 0.500000 3.955687 93.0325 1.781157 0.319319
6547.1 6547.1 0.500000 3.955188 93.0217 1.781827 0.315069
6547.5 6547.5 0.500000 3.955009 93.0078 1.781881 0.311166
6547.9 6547.9 0.500000 3.954554 93.0069 1.782675 0.306642
6548.3 6548.3 0.500000 3.954162 93.0021 1.783281 0.302988
6548.7 6548.7 0.500000 3.953738 92.9874 1.783749 0.298759
6549.1 6549.1 0.500000 3.953461 92.972 1.783960 0.294226
6549.5 6549.5 0.500000 3.953224 92.9706 1.784358 0.289912
6549.9 6549.9 0.500000 3.952772 93.0945 1.787545 0.286720
6550.3 6550.3 0.500000 3.952545 93.0809 1.787686 0.283486
6550.7 6550.7 0.500000 3.952018 93.0697 1.788409 0.279830
6551.1 6551.1 0.500000 3.951702 93.0568 1.788734 0.277105
6551.49 6551.5 0.500000 3.950705 93.1526 1.792358 0.274955
6551.9 6551.9 0.500000 3.950067 93.1301 1.793069 0.271998
6552.3 6552.3 0.500000 3.949285 93.1296 1.794467 0.270076
6552.7 6552.7 0.500000 3.948595 93.1201 1.795521 0.267169
6553.1 6553.1 0.500000 3.947659 93.1143 1.797084 0.265610
6553.5 6553.5 0.500000 3.946898 93.1159 1.798491 0.263964
6553.9 6553.9 0.500000 3.946275 93.1144 1.799571 0.262573
6554.3 6554.3 0.500000 3.945656 93.1111 1.800647 0.261896
6554.7 6554.7 0.500000 3.945003 93.1145 1.801869 0.261611
6555.1 6555.1 0.500000 3.944222 93.1116 1.803237 0.262422
6555.5 6555.5 0.500000 3.943460 93.1057 1.804483 0.263197
6555.9 6555.9 0.500000 3.942338 93.1078 1.806547 0.264475
6556.3 6556.3 0.500000 3.941658 93.1155 1.807933 0.266268
6556.7 6556.7 0.500000 3.941065 93.0892 1.808501 0.268085
6557.1 6557.1 0.500000 3.940080 93.1057 1.810576 0.270439
6557.5 6557.5 0.500000 3.939550 93.093 1.811309 0.271591
6557.9 6557.9 0.500000 3.938972 93.2121 1.814673 0.274115
6558.3 6558.3 0.500000 3.938357 93.2131 1.815811 0.275446
6558.7 6558.7 0.500000 3.937303 93.2067 1.817579 0.276662
6559.1 6559.1 0.500000 3.936796 93.199 1.818365 0.277805
6559.5 6559.5 0.500000 3.936051 93.2065 1.819872 0.278636
6559.9 6559.9 0.500000 3.935297 93.1786 1.820684 0.279218
6560.3 6560.3 0.500000 3.935001 93.0904 1.819518 0.279043
6560.7 6560.7 0.500000 3.934125 93.0024 1.819390 0.279233
6561.1 6561.1 0.500000 3.933641 93.0206 1.820631 0.279181
6561.49 6561.5 0.500000 3.932751 93.163 1.825028 0.279970
6561.9 6561.9 0.500000 3.932377 93.1639 1.825728 0.279700
6562.3 6562.3 0.500000 3.931495 93.1765 1.827596 0.279634
6562.7 6562.7 0.500000 3.930894 93.2901 1.830918 0.279631
6563.1 6563.1 0.500000 3.930209 93.281 1.831987 0.279603
6563.5 6563.5 0.500000 3.929682 93.2855 1.833048 0.279538
6563.9 6563.9 0.500000 3.929206 93.2744 1.833718 0.279225
6564.3 6564.3 0.500000 3.928592 93.372 1.836735 0.279867
6564.69 6564.7 0.500000 3.928124 93.3742 1.837665 0.279629
6565.1 6565.1 0.500000 3.927408 93.3666 1.838808 0.279383
6565.5 6565.5 0.500000 3.926857 93.3639 1.839780 0.279616
6565.91 6565.9 0.500000 3.925959 93.3693 1.841532 0.279963
6566.3 6566.3 0.500000 3.925290 93.3736 1.842852 0.280255
6566.7 6566.7 0.500000 3.925058 93.3795 1.843400 0.280588
6567.1 6567.1 0.500000 3.924071 93.3763 1.845154 0.281204
6567.5 6567.5 0.500000 3.923486 93.3912 1.846533 0.281088
6567.9 6567.9 0.500000 3.923171 93.3801 1.846900 0.281342
6568.3 6568.3 0.500000 3.922332 93.3998 1.848842 0.281493
6568.7 6568.7 0.500000 3.921293 93.4014 1.850783 0.282387
6570.09 6570.08 0.710000 3.919536 132.662 2.633380 0.402359
6574.59 6574.58 0.760000 3.912669 142.028 2.838722 0.432997
6579.4 6579.39 0.810000 3.905377 151.532 3.050820 0.460519
6584.51 6584.51 0.860000 3.897872 161.021 3.266282 0.489043
6589.94 6589.93 0.910000 3.889868 170.4 3.484340 0.531212
6595.66 6595.65 0.960000 3.881377 179.828 3.708474 0.575037
6601.69 6601.68 1.010000 3.872349 188.854 3.929946 0.616288
6608.02 6608.01 1.060000 3.862942 198.685 4.173597 0.652126
6614.66 6614.65 1.110000 3.853271 208.112 4.414132 0.686352
6621.61 6621.6 1.160000 3.842774 217.518 4.662292 0.726533
6628.84 6628.84 1.210000 3.831954 227.011 4.918682 0.774378
6636.41 6636.4 1.260000 3.820569 236.717 5.187716 0.821292
6644.27 6644.26 1.310000 3.808838 246.461 5.464990 0.869408
6652.43 6652.42 1.360000 3.796749 255.974 5.745007 0.924723
6660.9 6660.89 1.410000 3.784696 265.485 6.030695 0.977854
6669.67 6669.66 1.460000 3.771583 275.04 6.330257 1.027471
6678.74 6678.74 1.510000 3.758519 284.579 6.635890 1.078213
6688.12 6688.12 1.560000 3.744964 294.072 6.950835 1.138994
6697.8 6697.8 1.610000 3.730977 303.54 7.275734 1.206489
6707.79 6707.79 1.660000 3.716650 312.96 7.609783 1.276011
6718.09 6718.09 1.710000 3.701677 322.376 7.956979 1.343160
6728.7 6728.69 1.760000 3.686707 332.142 8.321647 1.411757
6739.6 6739.6 1.810000 3.670834 341.407 8.690576 1.482575
6750.81 6750.81 1.860000 3.654920 350.578 9.067161 1.561143
6762.32 6762.32 1.910000 3.638186 359.613 9.457836 1.644853
6774.14 6774.14 1.960000 3.621485 368.699 9.860058 1.730929
6786.27 6786.27 2.010000 3.604660 378.336 10.2895 1.825582
6798.7 6798.7 2.060000 3.587487 387.758 10.7284 1.920353
6811.42 6811.43 2.110000 3.568947 372.464 10.498 1.892908
6824.47 6824.47 2.160000 3.551984 402.889 11.5499 2.098333
6837.82 6837.82 2.210000 3.533990 412.597 12.0429 2.208883
6851.47 6851.47 2.260000 3.515645 420.978 12.5151 2.318926
6865.43 6865.42 2.310000 3.498575 429.202 12.9792 2.430092
6879.68 6879.68 2.360000 3.479063 438.655 13.5264 2.558356
6894.24 6894.24 2.410000 3.459712 449.006 14.1162 2.694817
6909.11 6909.11 2.460000 3.440156 457.625 14.6712 2.826187
6924.28 6924.28 2.510000 3.420220 465.743 15.2322 2.962622
6939.76 6939.76 2.560000 3.400784 474.176 15.8123 3.106576
6955.54 6955.54 2.610000 3.380260 482.949 16.4389 3.261884
6971.63 6971.63 2.660000 3.359854 491.604 17.0784 3.425700
6988.03 6988.02 2.710000 3.339861 499.695 17.7102 3.589619
7004.73 7004.72 2.760000 3.318759 507.415 18.3672 3.761695
7021.73 7021.72 2.810000 3.297340 515.19 19.0523 3.940354
7039.03 7039.03 2.860000 3.276667 522.985 19.7446 4.126231
7056.64 7056.64 2.910000 3.255410 531.277 20.4882 4.325936
7074.56 7074.56 2.960000 3.234069 535.186 21.0841 4.499501
7092.78 7092.78 3.010000 3.211916 547.212 22.0406 4.753672
7111.31 7111.3 3.060000 3.190654 553.706 22.7814 4.964328
7130.14 7130.13 3.110000 3.218297 533.546 21.3535 4.683478
7149.27 7149.27 3.160000 3.180490 549.127 22.8239 5.063043
7168.71 7168.71 3.210000 3.155236 558.548 23.8092 5.338473
7188.45 7188.45 3.260000 3.137744 563.576 24.4476 5.541443
7208.5 7208.5 3.310000 3.112796 571.88 25.4345 5.827285
7228.86 7228.86 3.360000 3.088215 578.639 26.3755 6.110538
7249.52 7249.52 3.410000 3.064934 584.464 27.2685 6.387795
7270.49 7270.48 3.460000 3.041707 592.95 28.3146 6.704233
7281.08 7281.08 3.490000 3.029633 586.61 28.3521 6.750503