File: xdidata/Data/Mn/Mn-Rhodocrosite.xdi
# XDI/1.0 BlueSky/1.10.0 BMM/2023-1.0-py310-tiled
# Beamline.name: BMM (06BM) -- Beamline for Materials Measurement (NIST)
# Beamline.xray_source: NSLS-II three-pole wiggler
# Beamline.collimation: paraboloid mirror, 5 nm Rh on 30 nm Pt
# Beamline.focusing: not in use
# Beamline.harmonic_rejection: flat mirror, Si stripe, pitch = 7.0 mrad relative to beam
# Beamline.software: Bluesky 1.10.0, Ophyd 1.7.0, DataBroker 2.0.0b13, Python 3.10.8, 2023-1.0-py310-tiled
# Detector.I0: 10 cm N2
# Detector.I1: 25 cm N2
# Detector.I2: 25 cm N2
# Element.symbol: Mn
# Element.edge: K
# Element.reference: Mn
# Element.reference_material: Mn metal powder
# Facility.name: NSLS-II
# Facility.energy: 3.0
# Facility.current: 400.7
# Facility.mode: top-off
# Facility.GUP: 123456
# Facility.SAF: 301027
# Facility.cycle: 2023-2
# Mono.name: Si(111)
# Mono.d_spacing: 3.13519
# Mono.encoder_resolution: 0.0000050 deg/ct
# Mono.angle_offset: 16.0754 deg
# Mono.scan_mode: pseudo channel cut
# Mono.scan_type: step
# Mono.direction: forward in energy
# Sample.name: MnCO3
# Sample.prep: PEG pellet
# Sample.x: 123.848 mm
# Sample.y: 114.690 mm
# Sample.SDD_position: 205.000 mm
# Scan.experimenters: Bruce Ravel
# Scan.edge_energy: 6539.0
# Scan.start_time: 2023-05-08T11:37:26
# Scan.end_time: 2023-05-08T11:45:39
# Scan.transient_id: 75370
# Scan.uid: ea835894-ed44-4bc1-af4c-7e9bb2443a09
# Scan.plot_hint: ln(I0/It)  --  ln($5/$6)
# Column.1: energy eV
# Column.2: requested_energy eV
# Column.3: measurement_time seconds
# Column.4: xmu
# Column.5: I0 nA
# Column.6: It nA
# Column.7: Ir nA
# ///////////
# Welcome to BMM
# -----------
# energy  requested_energy  measurement_time  xmu  I0  It  Ir
  6338.999  6339.000  0.500  2.566016  150.637  11.5751  0.591078
  6369.002  6369.000  0.500  2.521241  151.36  12.1632  0.646176
  6399.012  6399.000  0.500  2.477148  151.985  12.7641  0.705022
  6429.010  6429.000  0.500  2.433968  152.534  13.3755  0.767598
  6459.010  6459.000  0.500  2.391659  152.592  13.9588  0.830652
  6488.999  6489.000  0.500  2.349435  153.217  14.6204  0.898948
  6510.984  6511.000  0.500  2.322384  153.761  15.0747  0.939759
  6516.989  6517.000  0.500  2.315197  153.842  15.1914  0.946248
  6522.988  6523.000  0.500  2.309364  153.936  15.2897  0.945330
  6528.994  6529.000  0.500  2.304897  154.005  15.3649  0.927401
  6529.884  6529.900  0.500  2.304978  153.991  15.3622  0.920384
  6530.784  6530.800  0.500  2.304650  153.986  15.3668  0.912969
  6531.691  6531.700  0.500  2.304036  153.977  15.3754  0.903527
  6532.590  6532.600  0.500  2.303928  153.994  15.3787  0.891344
  6533.486  6533.500  0.500  2.304987  153.997  15.3627  0.872522
  6534.391  6534.400  0.500  2.305297  153.992  15.3575  0.848474
  6535.292  6535.300  0.500  2.306071  153.986  15.345  0.810794
  6536.194  6536.200  0.500  2.307866  153.99  15.3179  0.748106
  6537.093  6537.100  0.500  2.310900  154.004  15.2728  0.616747
  6537.998  6538.000  0.500  2.317020  154.016  15.1809  0.352647
  6538.899  6538.900  0.500  2.334887  154.002  14.9107  0.160902
  6539.798  6539.800  0.500  2.349227  153.999  14.6981  0.104607
  6540.692  6540.700  0.500  2.342543  153.99  14.7959  0.079014
  6541.596  6541.600  0.500  2.342556  154  14.7966  0.068779
  6542.502  6542.500  0.500  2.359015  154.002  14.5552  0.066180
  6543.397  6543.400  0.500  2.399332  154.003  13.9802  0.056314
  6544.298  6544.300  0.500  2.510179  154.001  12.5131  0.043248
  6545.202  6545.200  0.500  2.680484  154.009  10.5543  0.033298
  6546.096  6546.100  0.500  2.855540  154.012  8.859522  0.024959
  6546.994  6547.000  0.500  3.123892  154.021  6.774694  0.016083
  6547.901  6547.900  0.500  3.497375  154.03  4.663530  0.009145
  6548.798  6548.800  0.500  3.910751  154.032  3.084567  0.005024
  6549.701  6549.700  0.500  4.203602  154.047  2.301712  0.002977
  6550.601  6550.600  0.500  4.248030  154.055  2.201812  0.002342
  6551.501  6551.500  0.500  4.210695  154.072  2.285815  0.002003
  6552.402  6552.400  0.500  4.106473  154.087  2.537154  0.001814
  6553.300  6553.300  0.500  3.943305  154.095  2.986976  0.001760
  6554.202  6554.200  0.500  3.747338  154.115  3.634091  0.001892
  6555.100  6555.100  0.500  3.598064  154.147  4.220025  0.002146
  6556.001  6556.000  0.500  3.535134  154.162  4.494563  0.002068
  6556.903  6556.900  0.500  3.511631  154.165  4.601544  0.002424
  6557.801  6557.800  0.500  3.530279  154.183  4.517070  0.002482
  6558.699  6558.700  0.500  3.599496  154.207  4.215633  0.002477
  6559.606  6559.600  0.500  3.683628  154.23  3.876049  0.002539
  6560.504  6560.500  0.500  3.737956  154.23  3.671097  0.002512
  6561.399  6561.400  0.500  3.750310  154.158  3.624319  0.002400
  6562.299  6562.300  0.500  3.731792  154.47  3.699527  0.002395
  6563.205  6563.200  0.500  3.683730  154.795  3.889850  0.002413
  6564.000  6564.000  0.500  3.631563  154.834  4.099199  0.002539
  6567.035  6567.010  0.500  3.378579  154.858  5.280017  0.003103
  6570.191  6570.200  0.500  3.184301  154.863  6.412447  0.003687
  6573.557  6573.560  0.500  3.124123  154.887  6.811247  0.003842
  6577.082  6577.080  0.500  3.161192  154.937  6.565493  0.003806
  6580.786  6580.780  0.500  3.262369  154.968  5.934914  0.003191
  6584.657  6584.650  0.500  3.399159  154.984  5.176665  0.002595
  6588.704  6588.700  0.500  3.435415  154.992  4.992607  0.002697
  6592.920  6592.910  0.500  3.492164  155.028  4.718254  0.002804
  6597.298  6597.290  0.500  3.501429  155.056  4.675587  0.002988
  6601.859  6601.850  0.500  3.417323  155.081  5.086694  0.003416
  6606.587  6606.580  0.500  3.399307  155.107  5.180000  0.003388
  6611.489  6611.480  0.500  3.388817  155.162  5.236491  0.003161
  6616.556  6616.550  0.500  3.341939  155.165  5.487927  0.003182
  6621.800  6621.790  0.500  3.283713  155.15  5.816374  0.003318
  6627.218  6627.210  0.500  3.280525  155.179  5.836065  0.003431
  6632.801  6632.790  0.500  3.284960  155.209  5.811352  0.003653
  6638.557  6638.550  0.500  3.284667  155.232  5.813910  0.003561
  6644.488  6644.480  0.500  3.287897  155.246  5.795670  0.003450
  6650.589  6650.580  0.500  3.285849  155.262  5.808154  0.003818
  6656.860  6656.850  0.500  3.284162  155.253  5.817652  0.003995
  6663.298  6663.290  0.500  3.276346  155.248  5.863098  0.004198
  6669.908  6669.900  0.500  3.277218  155.245  5.857864  0.003945
  6676.702  6676.690  0.500  3.280909  155.218  5.835265  0.003710
  6683.657  6683.650  0.500  3.247046  155.252  6.037585  0.003814
  6690.776  6690.770  0.500  3.204057  155.237  6.302171  0.004141
  6698.079  6698.070  0.500  3.179711  155.205  6.456177  0.004407
  6705.559  6705.550  0.500  3.182449  155.14  6.435837  0.004729
  6713.200  6713.190  0.500  3.168512  155.111  6.524912  0.004873
  6721.003  6721.000  0.500  3.157583  155.07  6.594864  0.004893
  6728.995  6728.990  0.500  3.140303  155.046  6.708810  0.004833
  6737.165  6737.150  0.500  3.122168  154.964  6.827960  0.005029
  6745.485  6745.470  0.500  3.117012  154.871  6.859151  0.005098
  6753.978  6753.970  0.500  3.104850  154.803  6.940023  0.005305
  6762.666  6762.650  0.500  3.097468  154.746  6.988836  0.005386
  6771.494  6771.490  0.500  3.080103  154.648  7.106764  0.005445
  6780.514  6780.500  0.500  3.053805  154.618  7.294736  0.005902
  6789.701  6789.690  0.500  3.030417  154.599  7.466442  0.006398
  6799.065  6799.050  0.500  3.014606  154.046  7.558292  0.006547
  6808.584  6808.570  0.500  2.997578  154.141  7.692843  0.006763
  6818.287  6818.270  0.500  2.982684  153.954  7.798825  0.006733
  6828.167  6828.150  0.500  2.971913  153.618  7.866028  0.006877
  6838.207  6838.190  0.500  2.958948  153.343  7.954412  0.007068
  6848.409  6848.400  0.500  2.938093  153.154  8.112047  0.007412
  6858.802  6858.790  0.500  2.920527  153.107  8.253296  0.007873
  6869.362  6869.350  0.500  2.904731  153.085  8.383476  0.008273
  6880.096  6880.080  0.500  2.889233  153.011  8.510320  0.008527
  6890.993  6890.980  0.500  2.871220  152.857  8.656247  0.008785
  6902.064  6902.050  0.500  2.851795  152.667  8.815100  0.009002
  6913.301  6913.290  0.500  2.833902  152.335  8.954704  0.009350
  6924.722  6924.710  0.500  2.815097  152.033  9.106603  0.009587
  6936.287  6936.290  0.500  2.797485  151.75  9.251190  0.010120
  6948.061  6948.050  0.500  2.781222  151.523  9.388779  0.010443
  6959.997  6959.980  0.500  2.764680  151.806  9.563180  0.010898
  6972.094  6972.080  0.500  2.746443  151.632  9.728066  0.011443
  6984.353  6984.350  0.500  2.728976  151.341  9.880447  0.011858
  6996.798  6996.790  0.500  2.711817  151.046  10.0319  0.012274
  7009.410  7009.410  0.500  2.693604  150.691  10.1922  0.012683
  7022.195  7022.190  0.500  2.674863  150.375  10.3633  0.013122
  7035.159  7035.150  0.500  2.656289  150.02  10.5326  0.013780
  7048.284  7048.280  0.500  2.637989  149.663  10.7017  0.014198
  7061.592  7061.580  0.500  2.619643  149.335  10.8759  0.014705
  7075.066  7075.050  0.500  2.601001  147.856  10.9708  0.015395
  7088.720  7088.700  0.500  2.583062  148.473  11.216  0.016094
  7102.525  7102.510  0.500  2.564862  148.049  11.3894  0.016705
  7116.515  7116.500  0.500  2.546347  147.335  11.5463  0.017228
  7130.645  7130.660  0.500  2.528211  146.321  11.6766  0.017644
  7144.995  7144.990  0.500  2.509674  145.861  11.8577  0.018327
  7159.476  7159.490  0.500  2.490902  145.441  12.0476  0.019020
  7174.187  7174.160  0.500  2.472608  144.827  12.2183  0.019781
  7188.987  7189.000  0.500  2.453650  144.308  12.4075  0.020717
  7204.032  7204.020  0.500  2.434793  143.642  12.5854  0.021481
  7219.192  7219.200  0.500  2.416118  142.982  12.7637  0.022250
  7234.543  7234.560  0.500  2.397050  142.49  12.9646  0.023162
  7250.069  7250.090  0.500  2.378873  141.82  13.1403  0.024018
  7265.772  7265.790  0.500  2.359596  140.232  13.2461  0.024814
  7281.666  7281.660  0.500  2.341935  141.363  13.5908  0.026074
  7297.711  7297.710  0.500  2.323408  140.726  13.7826  0.027268
  7313.907  7313.920  0.500  2.304929  140.27  13.9941  0.028384
  7330.308  7330.310  0.500  2.285861  139.66  14.2015  0.029572
  7346.846  7346.870  0.500  2.267308  139.038  14.4031  0.030555
  7363.579  7363.600  0.500  2.248111  138.438  14.6188  0.031778
  7380.490  7380.500  0.500  2.229158  137.816  14.8317  0.033249
  7391.846  7391.860  0.500  2.216480  137.397  14.9752  0.034109