File: xdidata/Zr/La-L3-LaPO4.xdi
# XDI/1.0 BlueSky/1.5.3
# Beamline.name: 6BM
# Beamline.xray_source: NSLS-II three-pole wiggler
# Beamline.collimation: paraboloid mirror, 5 nm Rh on 30 nm Pt
# Beamline.focusing: not in use
# Beamline.harmonic_rejection: flat mirror, Si stripe, pitch = 7.0 mrad relative to beam
# Detector.i0: 10 cm N2
# Detector.I1: 25 cm N2
# Detector.I2: 25 cm N2
# Element.symbol: La
# Element.edge: L3
# Facility.name: NSLS-II
# Facility.energy: 3.0
# Facility.current: 400.3
# Facility.mode: top-off
# Facility.GUP: 305832
# Facility.SAF: 305669
# Facility.cycle: 2020-1
# Mono.name: Si(111)
# Mono.d_spacing: 3.13532
# Mono.encoder_resolution: 0.0000050 deg/ct
# Mono.angle_offset: 16.0581 deg
# Mono.scan_mode: fixed exit
# Mono.scan_type: step
# Mono.direction: forward in energy
# Sample.name: LaPO4
# Sample.prep: Powder in polyethylene glycol pellet
# Sample.x_position: -3.945 mm
# Sample.y_position: 103.894 mm
# Scan.experimenters: Neil Hyatt, Martin Stennett, Dan Austin, Seb Lawson
# Scan.edge_energy: 5482.7
# Scan.start_time: 2020-03-03T02:52:05
# Scan.end_time: 2020-03-03T03:02:09
# Scan.transient_id: 22550
# Scan.uid: 9260ce99-9059-4f0b-97ac-93412e05e14e
# Scan.plot_hint: (DTC1 + DTC2 + DTC3 + DTC4) / i0  --  ($8+$9+$10+$11) / $5
# Column.1: energy eV
# Column.2: requested_energy eV
# Column.3: measurement_time seconds
# Column.4: mutrans
# Column.5: i0
# Column.6: itrans
# Column.7: irefer
# ///////////
#
# -----------
#  energy  requested_energy  measurement_time  mutrans  i0  itrans  irefer
5282.698  5282.700  1.000  0.018766  55.6729  0.554172  0.084576
5312.710  5312.700  1.000  0.000000  56.4903  0.614170  0.098272
5342.706  5342.700  1.000  0.036854  56.9376  0.672901  0.104478
5372.703  5372.700  1.000  0.000000  57.7501  0.742115  0.119790
5402.695  5402.700  1.000  0.017721  58.5993  0.816605  0.133347
5432.701  5432.700  1.000  0.059923  59.3351  0.892986  0.150487
5454.696  5454.700  1.000  0.018938  59.8449  0.947444  0.162802
5460.694  5460.700  1.000  0.000000  59.946  0.959115  0.163556
5466.694  5466.700  1.000  0.000000  59.9971  0.963504  0.128390
5472.705  5472.700  1.000  0.033307  60.0473  0.957144  0.105814
5473.444  5473.450  1.000  0.022206  60.0451  0.955021  0.099227
5474.192  5474.200  1.000  0.035346  60.0508  0.951495  0.095662
5474.945  5474.950  1.000  0.000000  60.0167  0.946373  0.089267
5475.697  5475.700  1.000  0.035358  59.9958  0.941148  0.087973
5476.448  5476.450  1.000  0.000000  60.0064  0.935242  0.085538
5477.197  5477.200  1.000  0.000000  59.9841  0.926892  0.079600
5477.951  5477.950  1.000  0.017028  59.9888  0.916332  0.080343
5478.700  5478.700  1.000  0.000000  59.959  0.903910  0.073006
5479.449  5479.450  1.000  0.027802  59.9476  0.888520  0.069899
5480.203  5480.200  1.000  0.017269  59.9265  0.869009  0.068528
5480.949  5480.950  1.000  0.000000  59.9289  0.844603  0.064279
5481.701  5481.700  1.000  0.000000  60.1079  0.813695  0.059910
5482.453  5482.450  1.000  0.000000  60.1036  0.768839  0.056602
5483.200  5483.200  1.000  0.017053  60.0875  0.718490  0.052276
5483.951  5483.950  1.000  0.027736  60.0902  0.668984  0.047581
5484.701  5484.700  1.000  0.017004  60.0604  0.611129  0.047344
5485.450  5485.450  1.000  0.035583  60.0252  0.529366  0.043701
5486.199  5486.200  1.000  0.029613  60.0336  0.423002  0.036707
5486.951  5486.950  1.000  0.034642  60.0132  0.296297  0.027717
5487.700  5487.700  1.000  0.017012  59.9938  0.173203  0.018842
5488.450  5488.450  1.000  0.017209  59.9839  0.090429  0.014379
5489.204  5489.200  1.000  0.052738  59.957  0.052667  0.009927
5489.951  5489.950  1.000  0.000000  59.9286  0.045044  0.010944
5490.703  5490.700  1.000  0.020391  59.9403  0.059081  0.011255
5491.454  5491.450  1.000  0.000000  59.9216  0.095556  0.014792
5492.199  5492.200  1.000  0.053177  59.8788  0.144783  0.017185
5492.956  5492.950  1.000  0.017377  59.8957  0.199041  0.023267
5493.703  5493.700  1.000  0.073684  59.8674  0.248749  0.025511
5494.451  5494.450  1.000  0.043502  59.8395  0.292558  0.029242
5495.203  5495.200  1.000  0.017829  59.8283  0.328323  0.029837
5495.949  5495.950  1.000  0.000000  59.7967  0.357728  0.030953
5496.701  5496.700  1.000  0.000000  59.7919  0.385493  0.033821
5497.454  5497.450  1.000  0.034141  59.7646  0.406957  0.035243
5498.198  5498.200  1.000  0.035288  59.7468  0.419776  0.037075
5498.952  5498.950  1.000  0.000000  59.7313  0.425598  0.034090
5499.703  5499.700  1.000  0.053380  59.6827  0.427458  0.035847
5500.448  5500.450  1.000  0.044791  59.6784  0.430081  0.036704
5501.200  5501.200  1.000  0.000000  59.6357  0.434162  0.036129
5501.952  5501.950  1.000  0.017357  59.6224  0.437262  0.037355
5502.700  5502.700  1.000  0.017689  59.6046  0.441289  0.038163
5503.452  5503.450  1.000  0.017358  59.5509  0.445273  0.035281
5504.202  5504.200  1.000  0.000000  59.7337  0.450677  0.035147
5504.950  5504.950  1.000  0.000000  59.7193  0.453900  0.039893
5505.705  5505.700  1.000  0.091995  59.6817  0.454239  0.037776
5506.448  5506.450  1.000  0.063226  59.6705  0.454040  0.037477
5507.202  5507.200  1.000  0.080794  59.6326  0.450538  0.035009
5507.955  5507.950  1.000  0.000000  59.6109  0.444718  0.038301
5508.701  5508.700  1.000  0.050998  59.5904  0.438303  0.037165
5509.451  5509.450  1.000  0.035324  59.5447  0.431352  0.039833
5510.202  5510.200  1.000  0.063462  59.5286  0.424544  0.034479
5510.949  5510.950  1.000  0.017507  59.5009  0.416889  0.034164
5511.702  5511.700  1.000  0.053052  59.449  0.410284  0.029926
5512.454  5512.450  1.000  0.000000  59.419  0.402637  0.033485
5514.883  5514.880  1.000  0.000000  59.3218  0.379473  0.031656
5518.287  5518.280  1.000  0.035373  59.1887  0.355534  0.036054
5521.865  5521.860  1.000  0.102653  59.0146  0.345519  0.030664
5525.614  5525.610  1.000  0.052561  58.8235  0.367695  0.039245
5529.532  5529.530  1.000  0.017778  58.5932  0.399920  0.038393
5533.636  5533.630  1.000  0.036373  58.3652  0.421809  0.039085
5537.896  5537.890  1.000  0.035265  58.1076  0.436905  0.037114
5542.335  5542.330  1.000  0.035655  57.8105  0.440043  0.038618
5546.945  5546.940  1.000  0.038477  57.4917  0.433187  0.039503
5551.716  5551.710  1.000  0.054471  57.1735  0.424978  0.039639
5556.676  5556.670  1.000  0.027208  56.8014  0.418474  0.039987
5561.794  5561.790  1.000  0.000000  56.3947  0.413128  0.033761
5567.084  5567.080  1.000  0.018255  55.9716  0.408171  0.031087
5572.551  5572.540  1.000  0.037223  55.5617  0.415040  0.036445
5578.187  5578.180  1.000  0.000000  55.1188  0.421431  0.038499
5583.997  5583.990  1.000  0.060003  54.6613  0.428000  0.040867
5589.976  5589.970  1.000  0.065590  54.3628  0.437021  0.041274
5596.136  5596.120  1.000  0.021036  53.8762  0.443325  0.044093
5602.452  5602.440  1.000  0.067264  53.3703  0.443344  0.040655
5608.918  5608.930  1.000  0.051766  52.8359  0.434265  0.038230
5615.593  5615.600  1.000  0.000000  52.3618  0.438722  0.041784
5622.433  5622.440  1.000  0.022518  51.8107  0.444413  0.040985
5629.434  5629.440  1.000  0.077326  51.2797  0.443236  0.041900
5636.620  5636.620  1.000  0.115053  50.8331  0.444042  0.043609
5643.972  5643.970  1.000  0.021197  50.0942  0.450901  0.044564
5651.501  5651.490  1.000  0.051058  49.529  0.459574  0.045113
5659.201  5659.190  1.000  0.047722  49.3048  0.467632  0.048627
5667.045  5667.050  1.000  0.000000  49.0821  0.473781  0.047600
5675.088  5675.090  1.000  0.023374  48.8937  0.480533  0.049828
5683.294  5683.300  1.000  0.021374  48.6563  0.484211  0.049318
5691.678  5691.680  1.000  0.033523  48.4735  0.490782  0.047704
5700.222  5700.230  1.000  0.042233  48.303  0.498977  0.047706
5708.957  5708.950  1.000  0.033982  48.1539  0.507945  0.049588
5717.835  5717.840  1.000  0.042787  48.0063  0.517612  0.052516
5726.898  5726.910  1.000  0.063846  47.8272  0.527045  0.055864
5736.137  5736.150  1.000  0.064648  47.7061  0.536975  0.055635
5745.547  5745.550  1.000  0.000000  47.5565  0.548035  0.058971
5755.117  5755.130  1.000  0.022829  47.4537  0.561506  0.060412
5764.873  5764.880  1.000  0.000000  47.3455  0.573014  0.062878
5774.800  5774.810  1.000  0.043280  47.2044  0.584444  0.063616
5784.889  5784.900  1.000  0.067252  47.0642  0.594787  0.063799
5795.159  5795.170  1.000  0.076900  46.8917  0.606685  0.066032
5805.586  5805.600  1.000  0.022806  46.7722  0.620984  0.067811
5816.198  5816.210  1.000  0.044678  46.5746  0.635335  0.070920
5826.979  5826.990  1.000  0.119763  46.388  0.648957  0.074534
5837.933  5837.940  1.000  0.103570  46.3453  0.664402  0.077131
5849.056  5849.060  1.000  0.113506  46.0944  0.677154  0.077474
5860.348  5860.360  1.000  0.065556  45.7621  0.692615  0.081490
5871.807  5871.820  1.000  0.163263  35.4744  0.551258  0.066166
5883.448  5883.460  1.000  0.044825  45.7335  0.718928  0.083929
5895.258  5895.270  1.000  0.045691  45.3125  0.314240  0.041162
5907.250  5907.250  1.000  0.080165  44.8404  0.512593  0.064319
5919.397  5919.400  1.000  0.028497  35.7239  0.404247  0.050767
5931.725  5931.720  1.000  0.025937  39.4318  0.425699  0.056774
5940.031  5940.030  1.000  0.023532  43.5949  0.512691  0.064278