File: xdidata/Zr/Zr-K-Wadeite.xdi
# XDI/1.0 BlueSky/1.10.0 BMM/2023-1.0-py310-tiled
# Beamline.name: BMM (06BM) -- Beamline for Materials Measurement (NIST)
# Beamline.xray_source: NSLS-II three-pole wiggler
# Beamline.collimation: paraboloid mirror, 5 nm Rh on 30 nm Pt
# Beamline.focusing: not in use
# Beamline.harmonic_rejection: flat mirror, Pt stripe, pitch = 7.0 mrad relative to beam
# Beamline.software: Bluesky 1.10.0, Ophyd 1.7.0, DataBroker 2.0.0b13, Python 3.10.8, 2023-1.0-py310-tiled
# Detector.I0: 10 cm N2
# Detector.I1: 25 cm N2
# Detector.I2: 25 cm N2
# Element.symbol: Zr
# Element.edge: K
# Element.reference: Zr
# Element.reference_material: Zr foil
# Facility.name: NSLS-II
# Facility.energy: 3.0
# Facility.current: 400.8
# Facility.mode: top-off
# Facility.GUP: 301027
# Facility.SAF: 310583
# Facility.cycle: 2023-2
# Mono.name: Si(111)
# Mono.d_spacing: 3.13519
# Mono.encoder_resolution: 0.0000050 deg/ct
# Mono.angle_offset: 16.0754 deg
# Mono.scan_mode: pseudo channel cut
# Mono.scan_type: step
# Mono.direction: forward in energy
# Sample.name: K2Zr(SiO3O9)
# Sample.prep: powder in PEG pellet
# Sample.x: 117.785 mm
# Sample.y: 114.695 mm
# Sample.SDD_position: 205.000 mm
# Scan.experimenters: Bruce Ravel
# Scan.edge_energy: 17997.6
# Scan.start_time: 2023-06-23T19:40:16
# Scan.end_time: 2023-06-23T19:48:03
# Scan.transient_id: 84979
# Scan.uid: 2693b3e3-e96e-4364-b114-9675476b0801
# Scan.plot_hint: ln(I0/It)  --  ln($5/$6)
# Column.1: energy eV
# Column.2: requested_energy eV
# Column.3: measurement_time seconds
# Column.4: xmu
# Column.5: I0 nA
# Column.6: It nA
# Column.7: Ir nA
# ///////////
# sample courtesy Martin Stennett, University of Sheffield
# -----------
# energy  requested_energy  measurement_time  xmu  I0  It  Ir
  17797.358  17797.600  0.500  -0.051640  13.4864  14.2011  10.6895
  17827.655  17827.600  0.500  -0.054076  13.3549  14.097  10.6285
  17857.677  17857.600  0.500  -0.056790  13.2243  13.997  10.5559
  17887.703  17887.600  0.500  -0.058734  13.1014  13.8939  10.4878
  17917.705  17917.600  0.500  -0.060526  12.9943  13.8051  10.4152
  17947.666  17947.600  0.500  -0.061171  12.877  13.6892  10.304
  17969.439  17969.600  0.500  -0.058961  12.7282  13.5012  10.0993
  17975.531  17975.600  0.500  -0.057421  12.7745  13.5295  10.077
  17981.572  17981.600  0.500  -0.054857  12.7449  13.4636  9.961601
  17987.545  17987.600  0.500  -0.050525  12.7312  13.391  9.779708
  17988.425  17988.500  0.500  -0.049764  12.7189  13.3678  9.732663
  17989.319  17989.400  0.500  -0.048344  12.7234  13.3536  9.693200
  17990.228  17990.300  0.500  -0.047357  12.7222  13.3391  9.643355
  17991.151  17991.200  0.500  -0.046200  12.7123  13.3134  9.573222
  17992.045  17992.100  0.500  -0.045070  12.7071  13.2929  9.504105
  17992.926  17993.000  0.500  -0.043430  12.7099  13.274  9.421140
  17993.849  17993.900  0.500  -0.041955  12.7009  13.2451  9.311386
  17994.729  17994.800  0.500  -0.039828  12.6996  13.2156  9.177804
  17995.667  17995.700  0.500  -0.037745  12.692  13.1802  8.985803
  17996.548  17996.600  0.500  -0.034971  12.6864  13.1379  8.737482
  17997.471  17997.500  0.500  -0.031958  12.6905  13.1026  8.388687
  17998.395  17998.400  0.500  -0.028051  12.6818  13.0426  7.899810
  17999.262  17999.300  0.500  -0.023634  12.676  12.9792  7.352178
  18000.214  18000.200  0.500  -0.016994  12.6734  12.8906  6.728595
  18001.110  18001.100  0.500  -0.008701  12.6745  12.7853  6.222524
  18001.977  18002.000  0.500  0.001120  12.6564  12.6422  5.867633
  18002.915  18002.900  0.500  0.012942  12.6613  12.4985  5.642613
  18003.811  18003.800  0.500  0.024743  12.6456  12.3366  5.463604
  18004.707  18004.700  0.500  0.038254  12.6361  12.1619  5.259238
  18005.617  18005.600  0.500  0.054245  12.6455  11.9779  4.992942
  18006.513  18006.500  0.500  0.074134  12.64  11.7368  4.670949
  18007.395  18007.400  0.500  0.100506  12.6303  11.4226  4.281500
  18008.334  18008.300  0.500  0.134492  12.6378  11.0475  3.860355
  18009.173  18009.200  0.500  0.174276  12.6363  10.6153  3.445283
  18010.112  18010.100  0.500  0.224582  12.6308  10.0901  3.013712
  18011.008  18011.000  0.500  0.278480  12.6241  9.555611  2.637227
  18011.905  18011.900  0.500  0.338152  12.6123  8.993634  2.313264
  18012.830  18012.800  0.500  0.408813  12.6096  8.378297  2.034430
  18013.670  18013.700  0.500  0.489132  12.6194  7.737674  1.806627
  18014.595  18014.600  0.500  0.592037  12.6035  6.972240  1.592119
  18015.492  18015.500  0.500  0.706261  12.6068  6.221281  1.414667
  18016.375  18016.400  0.500  0.808012  12.6444  5.636148  1.292829
  18017.286  18017.300  0.500  0.892337  12.642  5.179379  1.209286
  18018.169  18018.200  0.500  0.934901  12.6359  4.961152  1.178629
  18019.038  18019.100  0.500  0.938780  12.6372  4.942465  1.189650
  18019.992  18020.000  0.500  0.913280  12.6388  5.070745  1.230670
  18020.890  18020.900  0.500  0.881365  12.6185  5.226781  1.271949
  18021.802  18021.800  0.500  0.853561  12.6182  5.374032  1.308671
  18022.600  18022.600  0.500  0.840631  12.6135  5.441960  1.323882
  18025.635  18025.610  0.500  0.895070  12.6082  5.151444  1.234590
  18028.828  18028.800  0.500  1.015963  12.585  4.556446  1.037579
  18032.194  18032.160  0.500  1.149717  12.5692  3.980998  0.880060
  18035.704  18035.680  0.500  1.072714  12.5587  4.296083  0.994059
  18039.443  18039.380  0.500  0.845262  12.5377  5.384238  1.314269
  18043.241  18043.250  0.500  0.738164  12.477  5.963883  1.469981
  18047.298  18047.300  0.500  0.713884  12.5068  6.125038  1.521186
  18051.529  18051.510  0.500  0.695120  12.4946  6.235005  1.561463
  18055.861  18055.890  0.500  0.681657  12.4732  6.308674  1.548613
  18060.467  18060.450  0.500  0.682372  12.4624  6.298680  1.487744
  18065.191  18065.180  0.500  0.694869  12.4309  6.204768  1.465612
  18070.074  18070.080  0.500  0.713723  12.4268  6.086846  1.493557
  18075.132  18075.150  0.500  0.755804  12.3832  5.815553  1.451103
  18080.379  18080.390  0.500  0.811996  12.3742  5.493808  1.380061
  18085.859  18085.810  0.500  0.823939  12.3432  5.414981  1.357941
  18091.414  18091.390  0.500  0.814800  12.2558  5.425967  1.334804
  18097.131  18097.150  0.500  0.817587  12.3178  5.438267  1.325466
  18103.081  18103.080  0.500  0.805168  12.2813  5.489917  1.362029
  18109.207  18109.180  0.500  0.772742  12.2298  5.647073  1.443091
  18115.454  18115.450  0.500  0.737668  12.2325  5.849927  1.503520
  18121.906  18121.890  0.500  0.713439  12.1281  5.942221  1.510196
  18128.535  18128.500  0.500  0.705326  12.1934  6.022879  1.514806
  18135.329  18135.290  0.500  0.706842  12.1476  5.991171  1.500322
  18142.272  18142.250  0.500  0.715851  12.129  5.928368  1.489882
  18149.393  18149.370  0.500  0.730931  12.0924  5.822001  1.494568
  18156.694  18156.670  0.500  0.736750  12.0866  5.785453  1.517446
  18164.160  18164.150  0.500  0.739172  12.0479  5.752958  1.519766
  18171.821  18171.790  0.500  0.737498  12.0193  5.748953  1.510628
  18179.633  18179.600  0.500  0.741579  11.9884  5.710806  1.476839
  18187.611  18187.590  0.500  0.736782  11.9217  5.706359  1.460048
  18195.785  18195.750  0.500  0.725216  11.9241  5.773894  1.485321
  18204.040  18204.070  0.500  0.715722  11.8918  5.813153  1.519895
  18212.607  18212.570  0.500  0.709250  11.8516  5.831143  1.545964
  18221.299  18221.250  0.500  0.703963  11.7539  5.813707  1.559312
  18230.116  18230.090  0.500  0.700975  11.7889  5.848513  1.564807
  18239.146  18239.100  0.500  0.697819  11.7512  5.848198  1.542882
  18248.302  18248.290  0.500  0.698926  11.7227  5.827591  1.514560
  18257.687  18257.650  0.500  0.703257  11.6842  5.783336  1.510983
  18267.184  18267.170  0.500  0.707636  11.6418  5.737157  1.522393
  18276.881  18276.870  0.500  0.706319  11.5859  5.717163  1.531086
  18286.765  18286.750  0.500  0.703517  11.2701  5.576936  1.504817
  18296.821  18296.790  0.500  0.700717  11.5273  5.720166  1.549217
  18307.035  18307.000  0.500  0.696797  11.4809  5.719554  1.543337
  18317.408  18317.390  0.500  0.691734  11.441  5.728613  1.534437
  18327.954  18327.950  0.500  0.685684  11.4038  5.744635  1.532579
  18338.705  18338.680  0.500  0.680364  11.3666  5.756435  1.551039
  18349.646  18349.580  0.500  0.678620  11.3127  5.739134  1.562319
  18360.719  18360.650  0.500  0.676286  11.2815  5.736641  1.572693
  18371.923  18371.890  0.500  0.672998  11.2385  5.733613  1.578108
  18383.378  18383.310  0.500  0.671827  11.1933  5.717274  1.569868
  18394.907  18394.890  0.500  0.672246  11.1552  5.695398  1.559884
  18406.689  18406.650  0.500  0.672409  11.0959  5.664213  1.550950
  18418.589  18418.580  0.500  0.670381  11.0679  5.661407  1.554472
  18430.729  18430.680  0.500  0.667681  11.0605  5.672877  1.568833
  18442.990  18442.950  0.500  0.664285  11.0174  5.670014  1.577274
  18455.431  18455.390  0.500  0.659389  10.9735  5.675110  1.583674
  18468.084  18468.010  0.500  0.655198  10.9063  5.664072  1.582062
  18480.784  18480.790  0.500  0.651819  10.8036  5.629730  1.571901
  18493.787  18493.750  0.500  0.649348  10.8284  5.656606  1.583171
  18506.913  18506.880  0.500  0.647902  10.7797  5.639314  1.582266
  18520.209  18520.180  0.500  0.644495  10.7324  5.633757  1.585258
  18533.690  18533.650  0.500  0.642319  10.681  5.618974  1.591459
  18547.342  18547.300  0.500  0.640134  10.6391  5.609144  1.595238
  18561.134  18561.110  0.500  0.638195  10.5822  5.589982  1.592726
  18575.160  18575.100  0.500  0.635577  10.5174  5.570329  1.588856
  18589.313  18589.260  0.500  0.631764  10.4794  5.571399  1.593076
  18603.609  18603.590  0.500  0.628900  10.4307  5.561415  1.594978
  18618.125  18618.090  0.500  0.625087  10.3803  5.555703  1.598993
  18632.862  18632.760  0.500  0.621355  10.3213  5.544771  1.601836
  18647.622  18647.600  0.500  0.617736  10.2782  5.541624  1.607201
  18662.650  18662.620  0.500  0.614416  10.2154  5.526087  1.607663
  18677.856  18677.800  0.500  0.612136  10.1645  5.511093  1.607467
  18693.210  18693.160  0.500  0.609297  10.1098  5.497050  1.607353
  18708.727  18708.690  0.500  0.606855  10.0497  5.477740  1.607642
  18724.455  18724.390  0.500  0.603235  10.0017  5.471347  1.610264
  18740.317  18740.260  0.500  0.599878  9.940341  5.456038  1.611553
  18756.360  18756.310  0.500  0.597330  9.883953  5.438930  1.613206
  18772.586  18772.520  0.500  0.593848  9.830054  5.428141  1.615694
  18788.996  18788.910  0.500  0.590296  9.776938  5.418018  1.616913
  18805.527  18805.470  0.500  0.586746  9.710663  5.400428  1.617029
  18822.227  18822.200  0.500  0.583271  9.659361  5.390599  1.618196
  18839.191  18839.100  0.500  0.580020  9.594397  5.371777  1.618074
  18850.523  18850.460  0.500  0.577570  9.574605  5.373850  1.623155