File: xdidata/Zr/Zr-K-ZirconiumOxide.xdi
# XDI/1.0 BlueSky/1.10.0 BMM/2023-1.0-py310-tiled
# Beamline.name: BMM (06BM) -- Beamline for Materials Measurement (NIST)
# Beamline.xray_source: NSLS-II three-pole wiggler
# Beamline.collimation: paraboloid mirror, 5 nm Rh on 30 nm Pt
# Beamline.focusing: not in use
# Beamline.harmonic_rejection: flat mirror, Pt stripe, pitch = 7.0 mrad relative to beam
# Beamline.software: Bluesky 1.10.0, Ophyd 1.7.0, DataBroker 2.0.0b13, Python 3.10.8, 2023-1.0-py310-tiled
# Detector.I0: 10 cm N2
# Detector.I1: 25 cm N2
# Detector.I2: 25 cm N2
# Element.symbol: Zr
# Element.edge: K
# Element.reference: Zr
# Element.reference_material: Zr foil
# Facility.name: NSLS-II
# Facility.energy: 3.0
# Facility.current: 399.1
# Facility.mode: top-off
# Facility.GUP: 301027
# Facility.SAF: 310583
# Facility.cycle: 2023-2
# Mono.name: Si(111)
# Mono.d_spacing: 3.13519
# Mono.encoder_resolution: 0.0000050 deg/ct
# Mono.angle_offset: 16.0754 deg
# Mono.scan_mode: pseudo channel cut
# Mono.scan_type: step
# Mono.direction: forward in energy
# Sample.name: ZrO2
# Sample.prep: powder in PEG pellet
# Sample.x: 117.785 mm
# Sample.y: 114.695 mm
# Sample.SDD_position: 205.000 mm
# Scan.experimenters: Bruce Ravel
# Scan.edge_energy: 17997.6
# Scan.start_time: 2023-06-23T19:32:32
# Scan.end_time: 2023-06-23T19:39:45
# Scan.transient_id: 84974
# Scan.uid: fdaf4bf9-692d-428e-89a7-67300b4cfe5f
# Scan.plot_hint: ln(I0/It)  --  ln($5/$6)
# Column.1: energy eV
# Column.2: requested_energy eV
# Column.3: measurement_time seconds
# Column.4: xmu
# Column.5: I0 nA
# Column.6: It nA
# Column.7: Ir nA
# ///////////
# sample courtesy Martin Stennett, University of Sheffield
# -----------
# energy  requested_energy  measurement_time  xmu  I0  It  Ir
  17797.539  17797.600  0.500  0.054740  13.6429  12.9161  9.725265
  17827.627  17827.600  0.500  0.051836  13.5045  12.8223  9.660820
  17857.635  17857.600  0.500  0.049844  13.399  12.7475  9.615408
  17887.717  17887.600  0.500  0.048492  13.2584  12.6308  9.530967
  17917.663  17917.600  0.500  0.048844  13.1704  12.5425  9.463496
  17947.666  17947.600  0.500  0.053736  13.0559  12.3728  9.312201
  17969.538  17969.600  0.500  0.065954  12.9071  12.0833  9.034778
  17975.560  17975.600  0.500  0.073205  12.9425  12.0288  8.956975
  17981.586  17981.600  0.500  0.084125  12.9244  11.8816  8.788520
  17987.545  17987.600  0.500  0.101618  12.9004  11.6539  8.509715
  17988.425  17988.500  0.500  0.105231  12.8976  11.6094  8.451408
  17989.348  17989.400  0.500  0.109190  12.9418  11.6031  8.416424
  17990.214  17990.300  0.500  0.113629  12.9398  11.55  8.346426
  17991.151  17991.200  0.500  0.118687  12.944  11.4954  8.265609
  17992.045  17992.100  0.500  0.123996  12.929  11.4213  8.162467
  17992.983  17993.000  0.500  0.130476  12.9296  11.348  8.047294
  17993.863  17993.900  0.500  0.137456  12.9255  11.2655  7.914975
  17994.772  17994.800  0.500  0.146085  12.9241  11.1675  7.744367
  17995.639  17995.700  0.500  0.155738  12.9237  11.0599  7.539980
  17996.619  17996.600  0.500  0.168251  12.9205  10.9197  7.244974
  17997.500  17997.500  0.500  0.183312  12.9194  10.7555  6.870216
  17998.381  17998.400  0.500  0.202097  12.9017  10.5409  6.381029
  17999.305  17999.300  0.500  0.227735  12.9059  10.2774  5.804034
  18000.214  18000.200  0.500  0.263493  12.901  9.912643  5.177443
  18001.124  18001.100  0.500  0.311289  12.8986  9.448260  4.608191
  18002.005  18002.000  0.500  0.370314  12.8971  8.905696  4.141481
  18002.929  18002.900  0.500  0.439812  12.8953  8.306571  3.754212
  18003.797  18003.800  0.500  0.512180  12.8789  7.716905  3.422229
  18004.721  18004.700  0.500  0.587304  12.8846  7.161578  3.100713
  18005.574  18005.600  0.500  0.657271  12.8847  6.677654  2.798502
  18006.499  18006.500  0.500  0.735335  12.874  6.171106  2.467114
  18007.380  18007.400  0.500  0.816554  12.8731  5.689312  2.149308
  18008.305  18008.300  0.500  0.910500  12.8708  5.178216  1.823248
  18009.173  18009.200  0.500  1.012243  12.865  4.675190  1.527365
  18010.084  18010.100  0.500  1.129172  12.8612  4.158036  1.255741
  18010.966  18011.000  0.500  1.263924  12.8602  3.633568  1.015436
  18011.891  18011.900  0.500  1.427713  12.852  3.082635  0.802791
  18012.773  18012.800  0.500  1.618046  12.8398  2.545949  0.626321
  18013.684  18013.700  0.500  1.846464  12.8546  2.028374  0.476727
  18014.581  18014.600  0.500  2.096719  12.8497  1.578697  0.360481
  18015.478  18015.500  0.500  2.358655  12.8424  1.214217  0.274299
  18016.403  18016.400  0.500  2.633948  12.8377  0.921672  0.208648
  18017.301  18017.300  0.500  2.885784  12.8353  0.716349  0.163742
  18018.212  18018.200  0.500  3.130841  12.8316  0.560498  0.129825
  18019.109  18019.100  0.500  3.331928  12.8231  0.458093  0.107159
  18020.007  18020.000  0.500  3.508263  12.8129  0.383732  0.090059
  18020.890  18020.900  0.500  3.635702  12.8144  0.337857  0.079393
  18021.844  18021.800  0.500  3.726499  12.8189  0.308641  0.072130
  18022.614  18022.600  0.500  3.766316  12.8111  0.296412  0.069232
  18025.664  18025.610  0.500  3.699184  12.7939  0.316570  0.072809
  18028.814  18028.800  0.500  3.502887  12.7783  0.384760  0.084791
  18032.151  18032.160  0.500  3.324384  12.768  0.459580  0.099250
  18035.690  18035.680  0.500  3.079927  12.755  0.586255  0.133224
  18039.429  18039.380  0.500  2.848884  12.7346  0.737447  0.177501
  18043.313  18043.250  0.500  2.717865  12.6636  0.835993  0.203278
  18047.313  18047.300  0.500  2.633694  12.7041  0.912313  0.224096
  18051.529  18051.510  0.500  2.550500  12.6941  0.990683  0.245490
  18055.875  18055.890  0.500  2.532395  12.6717  1.007000  0.244269
  18060.496  18060.450  0.500  2.552739  12.6541  0.985349  0.230372
  18065.191  18065.180  0.500  2.617951  12.6336  0.921651  0.215123
  18070.088  18070.080  0.500  2.748232  12.6162  0.807954  0.195741
  18075.146  18075.150  0.500  2.912308  12.5913  0.684338  0.167941
  18080.436  18080.390  0.500  3.008613  12.5714  0.620524  0.153213
  18085.816  18085.810  0.500  2.994263  12.5331  0.627575  0.154392
  18091.385  18091.390  0.500  2.895580  12.4493  0.688036  0.166584
  18097.174  18097.150  0.500  2.807341  12.5172  0.755602  0.181627
  18103.109  18103.080  0.500  2.742456  12.4831  0.804061  0.196958
  18109.193  18109.180  0.500  2.699504  12.4175  0.834936  0.210954
  18115.439  18115.450  0.500  2.687752  12.4333  0.845885  0.214773
  18121.949  18121.890  0.500  2.672398  12.3174  0.850962  0.213476
  18128.507  18128.500  0.500  2.645901  12.3847  0.878587  0.218069
  18135.300  18135.290  0.500  2.635454  12.337  0.884392  0.219026
  18142.286  18142.250  0.500  2.659711  12.3773  0.866018  0.214960
  18149.408  18149.370  0.500  2.704647  12.3347  0.825115  0.208991
  18156.709  18156.670  0.500  2.750180  12.3157  0.787174  0.203235
  18164.160  18164.150  0.500  2.753367  12.2988  0.783595  0.204228
  18171.792  18171.790  0.500  2.712711  12.2614  0.813623  0.210887
  18179.647  18179.600  0.500  2.658400  12.2296  0.856808  0.218982
  18187.611  18187.590  0.500  2.631091  12.1912  0.877762  0.221888
  18195.800  18195.750  0.500  2.619819  12.1701  0.886181  0.225182
  18204.098  18204.070  0.500  2.627398  12.1348  0.876936  0.226538
  18212.593  18212.570  0.500  2.644382  12.0931  0.859202  0.224863
  18221.285  18221.250  0.500  2.640873  11.9997  0.855570  0.226629
  18230.102  18230.090  0.500  2.614122  12.0375  0.881530  0.233185
  18239.132  18239.100  0.500  2.605891  11.9931  0.885535  0.230628
  18248.288  18248.290  0.500  2.610457  11.9566  0.878823  0.225461
  18257.716  18257.650  0.500  2.618712  11.92  0.868930  0.224101
  18267.198  18267.170  0.500  2.623153  11.8788  0.862084  0.225937
  18276.910  18276.870  0.500  2.626390  11.832  0.855915  0.226546
  18286.765  18286.750  0.500  2.617753  11.5041  0.839416  0.223764
  18296.865  18296.790  0.500  2.598979  11.7609  0.874416  0.234178
  18307.035  18307.000  0.500  2.572590  11.7165  0.894406  0.238819
  18317.437  18317.390  0.500  2.554748  11.6732  0.907143  0.240227
  18327.969  18327.950  0.500  2.565797  11.6396  0.894598  0.235587
  18338.705  18338.680  0.500  2.574393  11.5841  0.882711  0.235079
  18349.602  18349.580  0.500  2.560359  11.5335  0.891271  0.239669
  18360.719  18360.650  0.500  2.557495  11.5024  0.891419  0.241568
  18371.893  18371.890  0.500  2.547290  11.457  0.897012  0.243756
  18383.363  18383.310  0.500  2.535323  11.4133  0.904345  0.245326
  18394.937  18394.890  0.500  2.526079  11.3777  0.909900  0.246252
  18406.659  18406.650  0.500  2.524901  11.3352  0.907566  0.245728
  18418.634  18418.580  0.500  2.531800  11.2803  0.896962  0.243302
  18430.699  18430.680  0.500  2.529861  11.2349  0.895086  0.244430
  18443.020  18442.950  0.500  2.514288  11.1862  0.905190  0.248921
  18455.461  18455.390  0.500  2.499675  11.1494  0.915493  0.252637
  18468.054  18468.010  0.500  2.489215  11.094  0.920527  0.254139
  18480.859  18480.790  0.500  2.481812  10.985  0.918255  0.253602
  18493.817  18493.750  0.500  2.486896  11.0015  0.914970  0.253574
  18506.913  18506.880  0.500  2.487874  10.9401  0.908977  0.251791
  18520.285  18520.180  0.500  2.477159  10.9009  0.915471  0.254783
  18533.690  18533.650  0.500  2.463491  10.8538  0.924065  0.258772
  18547.327  18547.300  0.500  2.452261  10.802  0.930038  0.261500
  18561.195  18561.110  0.500  2.445448  10.755  0.932324  0.262672
  18575.145  18575.100  0.500  2.445263  10.6987  0.927610  0.261498
  18589.358  18589.260  0.500  2.441066  10.6475  0.927058  0.262587
  18603.654  18603.590  0.500  2.432537  10.588  0.929769  0.263820
  18618.216  18618.090  0.500  2.424054  10.5432  0.933723  0.265904
  18632.846  18632.760  0.500  2.411907  10.4782  0.939307  0.268215
  18647.790  18647.600  0.500  2.401835  10.4254  0.944042  0.270800
  18662.681  18662.620  0.500  2.398207  10.372  0.942611  0.271298
  18677.841  18677.800  0.500  2.392570  10.3234  0.943499  0.272619
  18693.194  18693.160  0.500  2.388054  10.271  0.942963  0.273144
  18708.758  18708.690  0.500  2.377862  10.2092  0.946890  0.275031
  18724.393  18724.390  0.500  2.369956  10.1562  0.949454  0.276797
  18740.332  18740.260  0.500  2.359511  10.0918  0.953335  0.278653
  18756.376  18756.310  0.500  2.352541  10.0436  0.955415  0.280560
  18772.633  18772.520  0.500  2.344869  9.982532  0.956923  0.281814
  18788.980  18788.910  0.500  2.340046  9.931762  0.956659  0.282602
  18805.527  18805.470  0.500  2.332390  9.872594  0.958268  0.283690
  18822.258  18822.200  0.500  2.323782  9.815646  0.960977  0.285749
  18839.176  18839.100  0.500  2.312468  9.755906  0.965997  0.288217
  18850.523  18850.460  0.500  2.307168  9.719934  0.967549  0.289350