File: xdidata/Zr/Zr-K-Zektzerite.xdi
# XDI/1.0 BlueSky/1.5.3
# Beamline.name: 6BM
# Beamline.xray_source: NSLS-II three-pole wiggler
# Beamline.collimation: paraboloid mirror, 5 nm Rh on 30 nm Pt
# Beamline.focusing: not in use
# Beamline.harmonic_rejection: flat mirror, Pt stripe, pitch = 7.0 mrad relative to beam
# Detector.i0: 10 cm N2
# Detector.i1: 25 cm N2
# Detector.i2: 25 cm N2
# Element.symbol: Zr
# Element.edge: K
# Facility.name: NSLS-II
# Facility.energy: 3.0
# Facility.current: 399.4
# Facility.mode: top-off
# Facility.gup: 305832
# Facility.saf: 305669
# Facility.cycle: 2020-1
# Mono.name: Si(111)
# Mono.d_spacing: 3.13532
# Mono.encoder_resolution: 0.0000050 deg/ct
# Mono.angle_offset: 16.0581 deg
# Mono.scan_mode: fixed exit
# Mono.scan_type: step
# Mono.direction: forward in energy
# Sample.name: LiNaZrSi6O15
# Sample.prep: Powder in polyethylene glycol pellet
# Sample.x_position: -5.367 mm
# Sample.y_position: 103.555 mm
# Scan.experimenters: Neil Hyatt, Martin Stennett, Dan Austin, Seb Lawson
# Scan.edge_energy: 17997.6
# Scan.start_time: 2020-03-05T04:39:28
# Scan.end_time: 2020-03-05T05:13:32
# Scan.transient_id: 22982
# Scan.uid: 577fe5cb-54b9-419f-8fa3-2e345ccfc068
# Scan.plot_hint: ln(I0/It)  --  ln($5/$6)
# Scan.sequence: merge of 3 scans
# Column.1: energy eV
# Column.2: requested_energy eV
# Column.3: measurement_time seconds
# Column.4: mutrans
# Column.5: i0
# Column.6: itrans
# Column.7: irefer
# /////
#
# -----
# energy   requested_energy   measurement_time   mutrans   i0   itrans   irefer
17797.6 17797.6 1.000000 -0.373762 8.888336 12.9165 10.127
17827.7 17827.6 1.000000 -0.375097 8.811945 12.8226 10.0633
17857.7 17857.6 1.000000 -0.375983 8.735809 12.723 9.991066
17887.7 17887.6 1.000000 -0.377294 8.613232 12.561 9.864576
17917.7 17917.6 1.000000 -0.378033 8.579308 12.5207 9.830715
17947.6 17947.6 1.000000 -0.377969 8.514044 12.4247 9.722402
17969.5 17969.6 1.000000 -0.375608 8.428347 12.2706 9.528650
17975.5 17975.6 1.000000 -0.374533 8.466693 12.3132 9.510555
17981.6 17981.6 1.000000 -0.372434 8.450230 12.2634 9.383993
17987.6 17987.6 1.000000 -0.369035 8.450670 12.2224 9.167047
17988.3 17988.3 1.000000 -0.368286 8.448934 12.211 9.120310
17989 17989.1 1.000000 -0.367509 8.453497 12.2083 9.071242
17989.8 17989.8 1.000000 -0.366833 8.451863 12.198 9.004319
17990.5 17990.6 1.000000 -0.366009 8.464897 12.2068 8.941738
17991.3 17991.3 1.000000 -0.364976 8.464243 12.1925 8.838249
17992.1 17992.1 1.000000 -0.363979 8.459357 12.1735 8.710770
17992.8 17992.8 1.000000 -0.362894 8.459639 12.1606 8.551812
17993.6 17993.6 1.000000 -0.361555 8.456117 12.1397 8.342775
17994.3 17994.3 1.000000 -0.360008 8.454477 12.1184 8.069020
17995.1 17995.1 1.000000 -0.358317 8.451892 12.0937 7.698090
17995.9 17995.8 1.000000 -0.356439 8.455192 12.0751 7.289999
17996.6 17996.6 1.000000 -0.353622 8.456417 12.0433 6.838751
17997.3 17997.3 1.000000 -0.350519 8.450121 11.9971 6.421272
17998.1 17998.1 1.000000 -0.346647 8.447352 11.9451 6.043609
17998.9 17998.8 1.000000 -0.341593 8.441856 11.8773 5.770746
17999.6 17999.6 1.000000 -0.336096 8.437396 11.8073 5.585889
18000.4 18000.3 1.000000 -0.329852 8.435654 11.7312 5.446055
18001.1 18001.1 1.000000 -0.323900 8.427062 11.6509 5.315838
18001.9 18001.8 1.000000 -0.316870 8.425101 11.5639 5.147414
18002.6 18002.6 1.000000 -0.308316 8.418263 11.459 4.941465
18003.4 18003.3 1.000000 -0.297899 8.419013 11.3405 4.687947
18004.1 18004.1 1.000000 -0.284880 8.411622 11.185 4.399427
18004.9 18004.8 1.000000 -0.268684 8.409090 11.0013 4.086603
18005.6 18005.6 1.000000 -0.247605 8.404277 10.7608 3.744269
18006.3 18006.3 1.000000 -0.222270 8.406598 10.5027 3.427875
18007.1 18007.1 1.000000 -0.192476 8.409773 10.1993 3.113770
18007.8 18007.8 1.000000 -0.159344 8.405418 9.859836 2.820252
18008.6 18008.6 1.000000 -0.124048 8.404604 9.521167 2.570218
18009.3 18009.3 1.000000 -0.087377 8.399597 9.168682 2.353505
18010.1 18010.1 1.000000 -0.050717 8.401964 8.839406 2.181785
18010.9 18010.8 1.000000 -0.012749 8.398309 8.506055 2.044935
18011.6 18011.6 1.000000 0.023412 8.388905 8.201023 1.945479
18012.3 18012.3 1.000000 0.057554 8.390872 7.921663 1.873623
18013.1 18013.1 1.000000 0.090336 8.402725 7.672797 1.828492
18013.8 18013.8 1.000000 0.118914 8.398545 7.459735 1.797168
18014.6 18014.6 1.000000 0.146071 8.396868 7.253409 1.773970
18015.3 18015.3 1.000000 0.169736 8.394641 7.085341 1.754249
18016.1 18016.1 1.000000 0.191490 8.388590 6.925892 1.731775
18016.9 18016.8 1.000000 0.209247 8.393008 6.806429 1.713901
18017.6 18017.6 1.000000 0.222834 8.388279 6.712719 1.699519
18018.4 18018.3 1.000000 0.232235 8.393061 6.653683 1.685387
18019.1 18019.1 1.000000 0.238372 8.397921 6.616689 1.679154
18019.9 18019.8 1.000000 0.241370 8.392793 6.592640 1.664650
18020.6 18020.6 1.000000 0.242778 8.389398 6.581020 1.663708
18021.4 18021.3 1.000000 0.243763 8.392135 6.576642 1.656542
18022.1 18022.1 1.000000 0.244599 8.388977 6.568816 1.643746
18022.9 18022.8 1.000000 0.246385 8.384325 6.553363 1.622381
18023.6 18023.6 1.000000 0.249379 8.382912 6.532162 1.604222
18024.3 18024.3 1.000000 0.253708 8.379564 6.502334 1.578177
18025.1 18025.1 1.000000 0.260727 8.379059 6.456000 1.545848
18025.9 18025.8 1.000000 0.269594 8.378076 6.397123 1.514721
18026.6 18026.6 1.000000 0.282436 8.378480 6.318106 1.481096
18027.3 18027.3 1.000000 0.296904 8.373839 6.221371 1.443318
18029.7 18029.8 1.000000 0.340613 8.368278 5.953909 1.373286
18033.2 18033.2 1.000000 0.287471 8.363106 6.268619 1.522420
18037 18036.8 1.000000 0.173577 8.321478 7.023599 1.788972
18040.5 18040.5 1.000000 0.111866 8.350193 7.465567 1.912588
18044.4 18044.4 1.000000 0.102156 8.338195 7.528552 1.944929
18048.5 18048.5 1.000000 0.083539 8.324273 7.657583 1.991911
18052.8 18052.8 1.000000 0.066982 8.311843 7.773280 1.980615
18057.2 18057.2 1.000000 0.073588 8.313878 7.724029 1.898752
18061.9 18061.8 1.000000 0.081775 8.299050 7.647641 1.874509
18066.6 18066.6 1.000000 0.096352 8.287375 7.526575 1.914362
18071.6 18071.6 1.000000 0.119534 8.270178 7.338900 1.901450
18076.7 18076.7 1.000000 0.143980 8.261115 7.153487 1.866420
18082 18082 1.000000 0.157345 8.236451 7.037338 1.837063
18087.5 18087.4 1.000000 0.161532 8.211289 6.986448 1.793083
18093.1 18093.1 1.000000 0.164994 8.217305 6.967457 1.763356
18098.9 18098.9 1.000000 0.157155 8.205955 7.012219 1.796475
18104.9 18104.9 1.000000 0.133580 8.173558 7.151497 1.890805
18111 18111 1.000000 0.111418 8.176534 7.314424 1.955441
18117.4 18117.3 1.000000 0.096511 8.153143 7.403085 1.956593
18123.8 18123.8 1.000000 0.092485 8.132085 7.413697 1.937920
18130.5 18130.5 1.000000 0.090819 8.127687 7.422053 1.931194
18137.4 18137.3 1.000000 0.092689 8.115432 7.396942 1.926045
18144.4 18144.3 1.000000 0.100130 8.097222 7.325763 1.939669
18151.5 18151.5 1.000000 0.109884 8.075596 7.235274 1.963113
18158.9 18158.9 1.000000 0.114320 8.063531 7.192444 1.972744
18166.4 18166.4 1.000000 0.111677 8.043837 7.193931 1.967648
18174.1 18174.1 1.000000 0.108761 8.019672 7.193198 1.941930
18182 18182 1.000000 0.108654 7.988998 7.166458 1.907529
18190 18190 1.000000 0.106437 7.968767 7.164164 1.905347
18198.3 18198.2 1.000000 0.101507 7.957584 7.189657 1.942965
18206.6 18206.6 1.000000 0.094673 7.934431 7.217852 1.977502
18215.2 18215.1 1.000000 0.090457 7.911149 7.226967 2.005737
18223.9 18223.8 1.000000 0.087289 7.838733 7.183512 2.001281
18232.7 18232.7 1.000000 0.085611 7.866509 7.221044 1.990177
18241.9 18241.8 1.000000 0.088773 7.842878 7.176608 1.943208
18251.1 18251 1.000000 0.089447 7.811898 7.143473 1.927520
18260.5 18260.5 1.000000 0.089378 7.792083 7.125842 1.951905
18270 18270 1.000000 0.091727 7.781815 7.099779 1.968723
18279.8 18279.8 1.000000 0.092168 7.563577 6.897583 1.925724
18289.8 18289.7 1.000000 0.090538 7.723895 7.055324 1.982255
18299.8 18299.8 1.000000 0.087056 7.711872 7.068899 1.984192
18310.1 18310.1 1.000000 0.084272 7.680627 7.059857 1.969431
18320.5 18320.5 1.000000 0.081853 7.660046 7.058015 1.954994
18331.1 18331.1 1.000000 0.079197 7.635487 7.054067 1.961120
18341.9 18341.9 1.000000 0.075694 7.614797 7.059662 1.985821
18352.9 18352.8 1.000000 0.074215 7.589266 7.046411 1.998638
18364 18364 1.000000 0.073310 7.562230 7.027649 2.003506
18375.3 18375.3 1.000000 0.073072 7.547373 7.015555 2.001406
18386.7 18386.7 1.000000 0.072054 7.521451 6.998565 1.988318
18398.4 18398.4 1.000000 0.072367 7.494840 6.971628 1.979569
18410.2 18410.2 1.000000 0.072089 7.467958 6.948547 1.974888
18422.2 18422.2 1.000000 0.070679 7.442797 6.934895 1.981091
18434.3 18434.3 1.000000 0.069020 7.414333 6.919852 1.992841
18446.7 18446.6 1.000000 0.066294 7.390641 6.916581 2.000099
18459.2 18459.1 1.000000 0.063480 7.359892 6.907219 2.000630
18471.8 18471.8 1.000000 0.061324 7.335263 6.898933 1.996950
18484.6 18484.6 1.000000 0.060028 7.299653 6.874368 1.992642
18497.7 18497.6 1.000000 0.059027 7.283039 6.865559 1.994970
18510.9 18510.8 1.000000 0.057365 7.261389 6.856551 1.997271
18524.2 18524.2 1.000000 0.055781 7.235507 6.842953 2.002029
18537.7 18537.7 1.000000 0.054736 7.212977 6.828770 2.008824
18551.4 18551.4 1.000000 0.053708 7.185083 6.809371 2.009904
18565.2 18565.2 1.000000 0.052293 7.151958 6.787560 2.005750
18579.3 18579.3 1.000000 0.050702 7.119122 6.767163 2.000388
18593.6 18593.5 1.000000 0.049065 7.086254 6.746973 2.002940
18607.9 18607.9 1.000000 0.046898 7.050108 6.727106 2.003346
18622.4 18622.4 1.000000 0.044516 7.012718 6.707384 2.002632
18637.2 18637.1 1.000000 0.042467 6.991593 6.700880 2.009763
18652.1 18652 1.000000 0.040605 6.958915 6.681990 2.011870
18667.1 18667.1 1.000000 0.038819 6.921075 6.657516 2.009856
18682.4 18682.3 1.000000 0.037412 6.891104 6.638052 2.007756
18697.8 18697.8 1.000000 0.036050 6.853653 6.610979 2.006821
18713.4 18713.3 1.000000 0.034712 6.818361 6.585756 2.003018
18729.1 18729.1 1.000000 0.032872 6.787316 6.567824 2.008020
18739.7 18739.7 1.000000 0.031540 6.763453 6.553451 2.005833