File: xdidata/Zr/Zr-K-BaZrO3.xdi
# XDI/1.0 BlueSky/1.5.3
# Beamline.name: 6BM
# Beamline.xray_source: NSLS-II three-pole wiggler
# Beamline.collimation: paraboloid mirror, 5 nm Rh on 30 nm Pt
# Beamline.focusing: not in use
# Beamline.harmonic_rejection: flat mirror, Pt stripe, pitch = 7.0 mrad relative to beam
# Detector.i0: 10 cm N2
# Detector.I1: 25 cm N2
# Detector.I2: 25 cm N2
# Element.symbol: Zr
# Element.edge: K
# Facility.name: NSLS-II
# Facility.energy: 3.0
# Facility.current: 400.7
# Facility.mode: top-off
# Facility.GUP: 305832
# Facility.SAF: 305669
# Facility.cycle: 2020-1
# Mono.name: Si(111)
# Mono.d_spacing: 3.13532
# Mono.encoder_resolution: 0.0000050 deg/ct
# Mono.angle_offset: 16.0581 deg
# Mono.scan_mode: fixed exit
# Mono.scan_type: step
# Mono.direction: forward in energy
# Sample.name: BaZrO3
# Sample.prep: Powder in polyethylene glycol pellet
# Sample.x_position: -5.367 mm
# Sample.y_position: 103.555 mm
# Scan.experimenters: Neil Hyatt, Martin Stennett, Dan Austin, Seb Lawson
# Scan.edge_energy: 17997.6
# Scan.start_time: 2020-03-05T03:42:05
# Scan.end_time: 2020-03-05T03:53:17
# Scan.transient_id: 22977
# Scan.uid: 6d06f44f-7129-4aa3-aa5b-17fbd3e0c216
# Scan.plot_hint: ln(i0/itrans)  --  ln($5/$6)
# Column.1: energy eV
# Column.2: requested_energy eV
# Column.3: measurement_time seconds
# Column.4: mutrans
# Column.5: i0
# Column.6: itrans
# Column.7: irefer
# ///////////
#
# -----------
#  energy  requested_energy  measurement_time  mutrans  i0  itrans  irefer
17797.585  17797.600  1.000  0.323957  9.138883  6.609981  5.182660
17827.688  17827.600  1.000  0.319647  9.062864  6.583312  5.166031
17857.768  17857.600  1.000  0.315428  8.982063  6.552205  5.145043
17887.641  17887.600  1.000  0.312271  8.861396  6.484622  5.096563
17917.728  17917.600  1.000  0.309759  8.829187  6.477303  5.086213
17947.691  17947.600  1.000  0.310006  8.751147  6.418466  5.021225
17969.507  17969.600  1.000  0.315829  8.651093  6.308239  4.897022
17975.544  17975.600  1.000  0.320169  8.683318  6.304319  4.867062
17981.541  17981.600  1.000  0.327018  8.662386  6.246194  4.779605
17987.543  17987.600  1.000  0.339174  8.648046  6.160506  4.621925
17988.239  17988.350  1.000  0.341181  8.647004  6.147418  4.593679
17989.020  17989.100  1.000  0.344210  8.648697  6.130023  4.552343
17989.815  17989.850  1.000  0.346994  8.638283  6.105620  4.505144
17990.553  17990.600  1.000  0.350194  8.638237  6.086084  4.457292
17991.306  17991.350  1.000  0.353505  8.633451  6.062606  4.393685
17992.072  17992.100  1.000  0.357934  8.629053  6.032740  4.316050
17992.811  17992.850  1.000  0.362651  8.628597  6.004028  4.234367
17993.564  17993.600  1.000  0.368395  8.629198  5.970055  4.109290
17994.359  17994.350  1.000  0.375150  8.621530  5.924596  3.946004
17995.112  17995.100  1.000  0.383213  8.616532  5.873613  3.750504
17995.836  17995.850  1.000  0.392889  8.612815  5.814540  3.519261
17996.604  17996.600  1.000  0.405538  8.609839  5.739472  3.267957
17997.328  17997.350  1.000  0.421464  8.609957  5.648872  3.034339
17998.081  17998.100  1.000  0.443534  8.603672  5.521532  2.805178
17998.863  17998.850  1.000  0.471710  8.598033  5.364609  2.609513
17999.616  17999.600  1.000  0.506590  8.598481  5.180985  2.453021
18000.355  18000.350  1.000  0.544039  8.628259  5.007838  2.334045
18001.095  18001.100  1.000  0.585306  8.628352  4.805433  2.201583
18001.862  18001.850  1.000  0.626176  8.625984  4.611730  2.059713
18002.587  18002.600  1.000  0.660843  8.623799  4.453465  1.930781
18003.341  18003.350  1.000  0.693602  8.621462  4.308770  1.792705
18004.123  18004.100  1.000  0.724520  8.619694  4.176734  1.643996
18004.862  18004.850  1.000  0.755085  8.616246  4.049382  1.510569
18005.602  18005.600  1.000  0.789817  8.611913  3.909186  1.372901
18006.370  18006.350  1.000  0.834451  8.607895  3.736796  1.225571
18007.081  18007.100  1.000  0.884286  8.600628  3.552136  1.092016
18007.835  18007.850  1.000  0.945450  8.600367  3.341281  0.965263
18008.603  18008.600  1.000  1.018432  8.599866  3.105935  0.847001
18009.343  18009.350  1.000  1.100575  8.593275  2.858808  0.741647
18010.083  18010.100  1.000  1.192229  8.594756  2.608885  0.653540
18010.852  18010.850  1.000  1.298935  8.591810  2.344038  0.571289
18011.592  18011.600  1.000  1.417754  8.588043  2.080519  0.498028
18012.317  18012.350  1.000  1.543452  8.590227  1.835237  0.440161
18013.086  18013.100  1.000  1.680668  8.582916  1.598563  0.385029
18013.855  18013.850  1.000  1.818083  8.581076  1.393023  0.340608
18014.581  18014.600  1.000  1.934748  8.580246  1.239508  0.307607
18015.321  18015.350  1.000  2.031110  8.570810  1.124404  0.284442
18016.104  18016.100  1.000  2.101383  8.569440  1.047933  0.268646
18016.816  18016.850  1.000  2.141745  8.565581  1.006025  0.259502
18017.571  18017.600  1.000  2.163952  8.562347  0.983559  0.254280
18018.340  18018.350  1.000  2.173947  8.561404  0.973670  0.250289
18019.095  18019.100  1.000  2.178989  8.559048  0.968507  0.249480
18019.836  18019.850  1.000  2.182310  8.554883  0.964826  0.250295
18020.619  18020.600  1.000  2.183710  8.554110  0.963389  0.248557
18021.360  18021.350  1.000  2.181419  8.547609  0.964865  0.248353
18022.087  18022.100  1.000  2.175516  8.541103  0.969838  0.249192
18022.842  18022.850  1.000  2.165312  8.575378  0.983717  0.249113
18023.626  18023.600  1.000  2.150654  8.568368  0.997427  0.249665
18024.367  18024.350  1.000  2.134544  8.566584  1.013414  0.249991
18025.079  18025.100  1.000  2.116536  8.564221  1.031544  0.250182
18025.849  18025.850  1.000  2.098082  8.557494  1.049932  0.252601
18026.590  18026.600  1.000  2.078827  8.554572  1.069979  0.255805
18027.360  18027.350  1.000  2.057057  8.555014  1.093584  0.259075
18029.799  18029.780  1.000  1.977860  8.546114  1.182483  0.278211
18033.236  18033.180  1.000  1.860872  8.528685  1.326525  0.327494
18036.761  18036.760  1.000  1.790794  8.484493  1.415448  0.366054
18040.529  18040.510  1.000  1.739268  8.512861  1.495275  0.387294
18044.414  18044.430  1.000  1.683903  8.505500  1.579029  0.412914
18048.543  18048.530  1.000  1.621414  8.491102  1.678004  0.441991
18052.831  18052.790  1.000  1.599748  8.482334  1.712986  0.441724
18057.264  18057.230  1.000  1.614526  8.466418  1.684689  0.418696
18061.857  18061.840  1.000  1.676288  8.460326  1.582649  0.393608
18066.624  18066.610  1.000  1.745630  8.444727  1.473900  0.380409
18071.537  18071.570  1.000  1.784268  8.432215  1.415938  0.372614
18076.682  18076.690  1.000  1.814239  8.416492  1.371567  0.363305
18082.003  18081.980  1.000  1.817314  8.391147  1.363238  0.361108
18087.484  18087.440  1.000  1.791828  8.368824  1.394709  0.362654
18093.083  18093.080  1.000  1.756830  8.374353  1.445339  0.370418
18098.887  18098.890  1.000  1.730652  8.354859  1.480221  0.383890
18104.896  18104.870  1.000  1.708698  8.319821  1.506731  0.403721
18111.024  18111.020  1.000  1.692219  8.325036  1.532727  0.413983
18117.359  18117.340  1.000  1.683575  8.297775  1.540970  0.413000
18123.884  18123.830  1.000  1.669432  8.280522  1.559669  0.412371
18130.516  18130.500  1.000  1.656103  8.266658  1.577951  0.417078
18137.311  18137.340  1.000  1.666533  8.260760  1.560464  0.411527
18144.371  18144.340  1.000  1.686283  8.240552  1.526205  0.409904
18151.553  18151.520  1.000  1.700072  8.246286  1.506353  0.413303
18158.885  18158.870  1.000  1.697283  8.231937  1.507931  0.418714
18166.396  18166.390  1.000  1.688003  8.211516  1.518214  0.420470
18174.131  18174.090  1.000  1.674870  8.194096  1.535021  0.419353
18181.946  18181.950  1.000  1.664093  8.164005  1.545955  0.417063
18190.014  18189.990  1.000  1.653708  8.153978  1.560175  0.423686
18198.249  18198.200  1.000  1.648364  8.129378  1.563803  0.426785
18206.593  18206.580  1.000  1.650762  8.111244  1.556577  0.433343
18215.163  18215.130  1.000  1.643769  8.089220  1.563244  0.439096
18223.873  18223.850  1.000  1.642087  8.012086  1.550945  0.436317
18232.766  18232.740  1.000  1.639884  8.040871  1.559949  0.434864
18241.857  18241.810  1.000  1.633991  8.020921  1.565277  0.428310
18251.075  18251.050  1.000  1.632903  7.987627  1.560475  0.424716
18260.492  18260.450  1.000  1.633523  7.970345  1.556134  0.432399
18270.050  18270.030  1.000  1.633788  7.944148  1.550609  0.435147
18279.810  18279.780  1.000  1.634958  7.712429  1.503620  0.424660
18289.726  18289.710  1.000  1.628045  7.891930  1.549288  0.439423
18299.771  18299.800  1.000  1.618264  7.875461  1.561252  0.444082
18310.122  18310.070  1.000  1.611324  7.842842  1.565613  0.441346
18320.499  18320.500  1.000  1.606417  7.826564  1.570048  0.440590
18331.153  18331.110  1.000  1.599549  7.801104  1.575726  0.442664
18341.908  18341.890  1.000  1.598126  7.775591  1.572810  0.448095
18352.897  18352.840  1.000  1.597286  7.750564  1.569065  0.449406
18363.989  18363.960  1.000  1.592530  7.720770  1.570485  0.452793
18375.272  18375.260  1.000  1.585557  7.698325  1.576876  0.452203
18386.761  18386.720  1.000  1.585525  7.672561  1.571649  0.450964
18398.399  18398.360  1.000  1.581291  7.646572  1.572972  0.452049
18410.201  18410.170  1.000  1.577116  7.616197  1.573278  0.453315
18422.211  18422.150  1.000  1.573874  7.591136  1.573193  0.455038
18434.296  18434.300  1.000  1.570776  7.555622  1.570691  0.458551
18446.667  18446.620  1.000  1.565890  7.545175  1.576202  0.460425
18459.084  18459.120  1.000  1.560330  7.534446  1.582736  0.463998
18471.832  18471.780  1.000  1.554525  7.504967  1.585722  0.462595
18484.628  18484.620  1.000  1.549925  7.464565  1.584458  0.463768
18497.682  18497.630  1.000  1.546510  7.443347  1.585359  0.462943
18510.860  18510.810  1.000  1.542087  7.415935  1.586522  0.466055
18524.222  18524.160  1.000  1.539411  7.381692  1.583427  0.469300
18537.770  18537.680  1.000  1.536157  7.351748  1.582145  0.469897
18551.398  18551.380  1.000  1.530273  7.319180  1.584431  0.473991
18565.303  18565.240  1.000  1.524260  7.286588  1.586889  0.472945
18579.320  18579.280  1.000  1.519359  7.248505  1.586350  0.475594
18593.525  18593.490  1.000  1.515220  7.217824  1.586189  0.471829
18607.905  18607.870  1.000  1.510056  7.183486  1.586815  0.477281
18622.458  18622.420  1.000  1.505275  7.144846  1.585843  0.476686
18637.203  18637.140  1.000  1.500843  7.113062  1.585801  0.479419
18652.017  18652.040  1.000  1.495420  7.081561  1.587364  0.482872
18667.160  18667.100  1.000  1.489969  7.051557  1.589278  0.482993
18682.374  18682.340  1.000  1.483880  7.014076  1.590486  0.485263
18697.797  18697.750  1.000  1.480034  6.979834  1.588819  0.486176
18713.399  18713.330  1.000  1.475591  6.947411  1.588481  0.486840
18729.120  18729.080  1.000  1.470371  6.910635  1.588342  0.488661
18739.764  18739.680  1.000  1.467253  6.884729  1.587329  0.491086