File: xdidata/Er/Er-L1-Er2TiO5.xdi
# XDI/1.0 BlueSky/1.10.0 BMM/2023-1.0-py310-tiled
# Beamline.name: BMM (06BM) -- Beamline for Materials Measurement (NIST)
# Beamline.xray_source: NSLS-II three-pole wiggler
# Beamline.collimation: paraboloid mirror, 5 nm Rh on 30 nm Pt
# Beamline.focusing: not in use
# Beamline.harmonic_rejection: flat mirror, Pt stripe, pitch = 7.0 mrad relative to beam
# Beamline.software: Bluesky 1.10.0, Ophyd 1.7.0, DataBroker 2.0.0b13, Python 3.10.8, 2023-1.0-py310-tiled
# Detector.I0: 10 cm N2
# Detector.I1: 25 cm N2
# Detector.I2: 25 cm N2
# Element.symbol: Er
# Element.edge: L1
# Element.reference: Er
# Element.reference_material: Er2O3
# Facility.name: NSLS-II
# Facility.energy: 3.0
# Facility.current: 400.3
# Facility.mode: top-off
# Facility.GUP: 123456
# Facility.SAF: 301027
# Facility.cycle: 2023-2
# Mono.name: Si(111)
# Mono.d_spacing: 3.13519
# Mono.encoder_resolution: 0.0000050 deg/ct
# Mono.angle_offset: 16.0754 deg
# Mono.scan_mode: pseudo channel cut
# Mono.scan_type: step
# Mono.direction: forward in energy
# Sample.name: Er2TiO5
# Sample.prep: Powder in PEG pellet
# Sample.x: 149.848 mm
# Sample.y: 114.690 mm
# Sample.SDD_position: 205.000 mm
# Scan.experimenters: Bruce Ravel
# Scan.edge_energy: 9751.3
# Scan.start_time: 2023-05-08T22:45:27
# Scan.end_time: 2023-05-08T22:51:12
# Scan.transient_id: 75690
# Scan.uid: a526b6fd-e22a-4eb3-b1b8-57da77ac87cf
# Scan.plot_hint: ln(I0/It)  --  ln($5/$6)
# Column.1: energy eV
# Column.2: requested_energy eV
# Column.3: measurement_time seconds
# Column.4: xmu
# Column.5: I0 nA
# Column.6: It nA
# Column.7: Ir nA
# ///////////
# sample courtesy Martin Stennett, University of Sheffield
# -----------
# energy  requested_energy  measurement_time  xmu  I0  It  Ir
  9551.289  9551.300  0.500  0.557433  104.855  60.0482  23.2167
  9571.334  9571.300  0.500  0.551199  104.458  60.1951  23.3943
  9591.378  9591.300  0.500  0.545442  104.039  60.2994  23.5297
  9611.329  9611.300  0.500  0.539582  103.597  60.3965  23.6857
  9631.328  9631.300  0.500  0.534023  103.174  60.485  23.8227
  9651.344  9651.300  0.500  0.528495  102.756  60.5736  23.9498
  9671.341  9671.300  0.500  0.541957  102.34  59.5216  23.6304
  9691.329  9691.300  0.500  0.525421  101.947  60.2816  24.045
  9711.332  9711.300  0.500  0.521876  101.495  60.2278  24.1331
  9723.279  9723.300  0.500  0.519538  101.29  60.2466  24.1825
  9727.280  9727.300  0.500  0.518000  101.177  60.272  24.2016
  9731.293  9731.300  0.500  0.516678  101.116  60.3158  24.2299
  9735.334  9735.300  0.500  0.515593  101.014  60.32  24.2369
  9739.304  9739.300  0.500  0.515080  100.93  60.3007  24.2358
  9741.789  9741.800  0.500  0.514751  100.89  60.2971  24.2346
  9742.798  9742.800  0.500  0.514488  100.867  60.2988  24.2344
  9743.791  9743.800  0.500  0.514373  100.85  60.2958  24.2289
  9744.792  9744.800  0.500  0.514426  100.81  60.2686  24.2176
  9745.789  9745.800  0.500  0.514667  100.798  60.247  24.2033
  9746.778  9746.800  0.500  0.514632  100.769  60.232  24.1898
  9747.788  9747.800  0.500  0.514953  100.753  60.2027  24.1706
  9748.791  9748.800  0.500  0.515507  100.719  60.1491  24.1335
  9749.797  9749.800  0.500  0.516211  100.713  60.1034  24.0917
  9750.804  9750.800  0.500  0.517365  100.691  60.0208  24.0217
  9751.790  9751.800  0.500  0.519180  100.677  59.9035  23.9248
  9752.797  9752.800  0.500  0.521613  100.645  59.7388  23.7889
  9753.792  9753.800  0.500  0.524496  100.622  59.5537  23.6413
  9754.787  9754.800  0.500  0.527167  100.59  59.3759  23.5068
  9755.790  9755.800  0.500  0.529716  100.574  59.215  23.3808
  9756.790  9756.800  0.500  0.532216  100.553  59.0549  23.249
  9757.806  9757.800  0.500  0.534837  100.533  58.8886  23.1147
  9758.802  9758.800  0.500  0.537579  100.495  58.7054  22.9739
  9759.794  9759.800  0.500  0.540592  100.487  58.5241  22.8291
  9760.799  9760.800  0.500  0.544277  100.469  58.2982  22.6611
  9761.795  9761.800  0.500  0.548141  100.441  58.0574  22.4745
  9762.792  9762.800  0.500  0.552800  100.412  57.7705  22.2552
  9763.797  9763.800  0.500  0.557635  100.408  57.4896  22.0311
  9764.791  9764.800  0.500  0.562819  100.379  57.1761  21.7983
  9765.800  9765.800  0.500  0.567376  100.356  56.9031  21.6085
  9766.806  9766.800  0.500  0.569967  100.328  56.7399  21.4985
  9767.800  9767.800  0.500  0.570832  100.314  56.6827  21.4767
  9768.798  9768.800  0.500  0.570010  100.285  56.7134  21.5096
  9769.788  9769.800  0.500  0.568606  100.259  56.778  21.5576
  9770.795  9770.800  0.500  0.567090  100.192  56.8263  21.594
  9771.801  9771.800  0.500  0.565744  100.133  56.8692  21.6123
  9772.800  9772.800  0.500  0.564613  100.29  57.0229  21.6646
  9773.808  9773.800  0.500  0.563749  99.0194  56.3491  21.3994
  9774.803  9774.800  0.500  0.562733  100.195  57.076  21.6678
  9775.802  9775.800  0.500  0.561583  100.6  57.3729  21.7806
  9777.290  9777.290  0.500  0.560410  100.566  57.4206  21.8168
  9779.310  9779.310  0.500  0.558649  100.492  57.4798  21.8927
  9781.436  9781.420  0.500  0.557080  100.389  57.5108  21.9871
  9783.607  9783.600  0.500  0.554430  98.8646  56.7878  21.8008
  9785.867  9785.860  0.500  0.551199  100.406  57.8598  22.3006
  9788.202  9788.190  0.500  0.548114  100.331  57.9951  22.4355
  9790.613  9790.600  0.500  0.545637  100.153  58.0359  22.5018
  9793.078  9793.080  0.500  0.543810  99.679  57.8668  22.4643
  9795.649  9795.640  0.500  0.542816  100.231  58.2451  22.6233
  9798.288  9798.280  0.500  0.542718  100.149  58.2034  22.6071
  9801.003  9801.000  0.500  0.543157  99.9895  58.0851  22.5561
  9803.798  9803.790  0.500  0.543824  99.6792  57.8661  22.4618
  9806.658  9806.650  0.500  0.544687  99.9902  57.9966  22.5008
  9809.602  9809.590  0.500  0.545309  99.9125  57.9155  22.4479
  9812.614  9812.610  0.500  0.545656  99.8349  57.8505  22.3905
  9815.725  9815.710  0.500  0.545510  99.7569  57.8137  22.3433
  9818.887  9818.880  0.500  0.545083  99.6852  57.7969  22.3034
  9822.143  9822.130  0.500  0.544136  99.4863  57.7362  22.2603
  9825.452  9825.450  0.500  0.543157  99.5307  57.8185  22.3018
  9828.858  9828.850  0.500  0.541972  98.9136  57.5282  22.2229
  9832.343  9832.330  0.500  0.540590  99.3635  57.8698  22.4176
  9835.897  9835.880  0.500  0.538719  98.9042  57.7101  22.4215
  9839.524  9839.510  0.500  0.537167  99.2027  57.9742  22.5706
  9843.230  9843.210  0.500  0.535753  98.6006  57.7039  22.4959
  9846.993  9846.990  0.500  0.534333  99.0298  58.0374  22.6378
  9850.864  9850.850  0.500  0.533060  98.9426  58.0602  22.6586
  9854.793  9854.780  0.500  0.531810  98.8785  58.0952  22.6976
  9858.792  9858.790  0.500  0.530420  98.7763  58.1158  22.7405
  9862.896  9862.880  0.500  0.529078  98.6863  58.1408  22.7819
  9867.040  9867.040  0.500  0.527771  98.6118  58.1729  22.829
  9871.290  9871.280  0.500  0.526630  98.5057  58.1767  22.8602
  9875.606  9875.590  0.500  0.525870  98.4132  58.1662  22.8754
  9879.998  9879.980  0.500  0.525237  98.1308  58.0361  22.831
  9884.453  9884.450  0.500  0.524571  98.0524  58.0283  22.8243
  9889.010  9888.990  0.500  0.523825  98.0913  58.0946  22.8411
  9893.621  9893.610  0.500  0.522760  97.9901  58.0966  22.8404
  9898.309  9898.300  0.500  0.521480  97.8815  58.1065  22.8686
  9903.083  9903.070  0.500  0.519662  97.7763  58.1497  22.91
  9907.928  9907.920  0.500  0.518004  97.6685  58.1819  22.9468
  9912.873  9912.850  0.500  0.516170  97.5575  58.2225  23.002
  9917.877  9917.850  0.500  0.514361  97.4423  58.259  23.0644
  9922.933  9922.920  0.500  0.512836  97.3119  58.2699  23.1212
  9928.089  9928.070  0.500  0.511638  97.1399  58.2366  23.1456
  9933.314  9933.300  0.500  0.510366  95.6406  57.4107  22.8315
  9938.613  9938.610  0.500  0.508904  97.0337  58.3322  23.2149
  9943.995  9943.990  0.500  0.507307  96.8919  58.34  23.239
  9949.459  9949.450  0.500  0.505877  96.7333  58.3279  23.2611
  9954.995  9954.980  0.500  0.504361  95.9873  57.9659  23.1482
  9960.596  9960.590  0.500  0.502924  96.4608  58.3356  23.3289
  9966.269  9966.270  0.500  0.501407  96.1151  58.2148  23.3159
  9972.047  9972.040  0.500  0.499798  96.3097  58.4266  23.4351
  9977.874  9977.870  0.500  0.498401  96.1461  58.4089  23.4518
  9983.800  9983.790  0.500  0.496813  91.8356  55.8789  22.4493
  9989.788  9989.780  0.500  0.495147  95.8429  58.4145  23.4834
  9995.867  9995.850  0.500  0.493594  95.6109  58.3636  23.4825
  10002.009  10001.990  0.500  0.491917  95.6376  58.4779  23.5576
  10008.236  10008.210  0.500  0.490139  95.5178  58.5086  23.6024
  10014.515  10014.500  0.500  0.488478  93.1682  57.1642  23.0987
  10020.881  10020.870  0.500  0.486540  95.1735  58.5079  23.6813
  10027.332  10027.320  0.500  0.484886  95.0347  58.5192  23.7296
  10033.875  10033.850  0.500  0.482959  94.6726  58.4088  23.7252
  10040.458  10040.450  0.500  0.481162  94.8341  58.6136  23.8459
  10047.141  10047.120  0.500  0.479429  94.6685  58.6127  23.8758
  10053.885  10053.870  0.500  0.477669  94.5063  58.6154  23.9082
  10060.722  10060.700  0.500  0.475890  94.3555  58.6261  23.9447
  10067.634  10067.610  0.500  0.474075  94.2121  58.6433  23.9861
  10074.613  10074.590  0.500  0.472175  94.0424  58.649  24.0214
  10081.663  10081.650  0.500  0.470277  93.9036  58.6737  24.0668
  10088.790  10088.780  0.500  0.468533  91.4249  57.2247  23.504
  10096.024  10095.990  0.500  0.466753  93.5699  58.6716  24.1287
  10103.313  10103.280  0.500  0.464704  93.4271  58.7022  24.1766
  10110.656  10110.640  0.500  0.462908  93.2743  58.7115  24.2176
  10118.095  10118.080  0.500  0.460834  93.0992  58.723  24.261
  10125.616  10125.590  0.500  0.458850  92.9527  58.747  24.3047
  10133.202  10133.180  0.500  0.456880  92.8  58.7662  24.3524
  10140.883  10140.850  0.500  0.454923  92.6246  58.77  24.394
  10148.622  10148.590  0.500  0.452832  92.4636  58.7906  24.443
  10156.448  10156.410  0.500  0.450932  92.2993  58.7978  24.4906
  10164.349  10164.310  0.500  0.448747  92.1277  58.8169  24.5416
  10172.312  10172.280  0.500  0.446824  91.9522  58.8178  24.5835
  10180.369  10180.330  0.500  0.444635  91.7873  58.841  24.6337
  10188.488  10188.450  0.500  0.442538  91.615  58.8538  24.676
  10196.688  10196.650  0.500  0.440454  91.4452  58.8673  24.7183
  10204.964  10204.930  0.500  0.438373  91.236  58.855  24.7512
  10213.308  10213.280  0.500  0.436170  91.0741  58.8801  24.7942
  10221.730  10221.710  0.500  0.434064  91.0321  58.9771  24.8773
  10230.233  10230.210  0.500  0.431965  91.0348  59.1027  24.9773
  10238.815  10238.790  0.500  0.429738  90.5094  58.8926  24.9343
  10247.484  10247.450  0.500  0.427613  90.676  59.1265  25.083
  10256.218  10256.190  0.500  0.425509  90.479  59.1223  25.1253
  10265.022  10265.000  0.500  0.423429  90.2768  59.113  25.1653
  10273.915  10273.880  0.500  0.421163  90.0579  59.1035  25.2039
  10282.865  10282.840  0.500  0.418869  89.89  59.1288  25.2574
  10291.904  10291.880  0.500  0.416618  89.6854  59.1271  25.2949
  10296.457  10296.430  0.500  0.415393  89.5819  59.1313  25.3186