File: xdidata/Er/Er-L3-Er2TiO5.xdi
# XDI/1.0 BlueSky/1.10.0 BMM/2023-1.0-py310-tiled
# Beamline.name: BMM (06BM) -- Beamline for Materials Measurement (NIST)
# Beamline.xray_source: NSLS-II three-pole wiggler
# Beamline.collimation: paraboloid mirror, 5 nm Rh on 30 nm Pt
# Beamline.focusing: not in use
# Beamline.harmonic_rejection: flat mirror, Pt stripe, pitch = 7.0 mrad relative to beam
# Beamline.software: Bluesky 1.10.0, Ophyd 1.7.0, DataBroker 2.0.0b13, Python 3.10.8, 2023-1.0-py310-tiled
# Detector.I0: 10 cm N2
# Detector.I1: 25 cm N2
# Detector.I2: 25 cm N2
# Element.symbol: Er
# Element.edge: L3
# Element.reference: Er
# Element.reference_material: Er2O3
# Facility.name: NSLS-II
# Facility.energy: 3.0
# Facility.current: 399.6
# Facility.mode: top-off
# Facility.GUP: 123456
# Facility.SAF: 301027
# Facility.cycle: 2023-2
# Mono.name: Si(111)
# Mono.d_spacing: 3.13519
# Mono.encoder_resolution: 0.0000050 deg/ct
# Mono.angle_offset: 16.0754 deg
# Mono.scan_mode: pseudo channel cut
# Mono.scan_type: step
# Mono.direction: forward in energy
# Sample.name: Er2TiO5
# Sample.prep: Powder in PEG pellet
# Sample.x: 149.848 mm
# Sample.y: 114.690 mm
# Sample.SDD_position: 205.000 mm
# Scan.experimenters: Bruce Ravel
# Scan.edge_energy: 8357.9
# Scan.start_time: 2023-05-08T19:13:01
# Scan.end_time: 2023-05-08T19:18:46
# Scan.transient_id: 75526
# Scan.uid: 0ede0184-1b96-406f-bdd4-a4d4f41646dd
# Scan.plot_hint: ln(I0/It)  --  ln($5/$6)
# Column.1: energy eV
# Column.2: requested_energy eV
# Column.3: measurement_time seconds
# Column.4: xmu
# Column.5: I0 nA
# Column.6: It nA
# Column.7: Ir nA
# ///////////
# sample courtesy Martin Stennett, University of Sheffield
# -----------
# energy  requested_energy  measurement_time  xmu  I0  It  Ir
  8157.906  8157.900  0.500  0.694906  134.952  67.3576  26.8572
  8177.938  8177.900  0.500  0.685449  134.649  67.8447  27.2291
  8197.928  8197.900  0.500  0.675861  134.365  68.3539  27.6095
  8217.926  8217.900  0.500  0.666703  134.016  68.8037  27.9705
  8237.926  8237.900  0.500  0.657294  133.71  69.2954  28.346
  8257.925  8257.900  0.500  0.648250  133.387  69.7561  28.7142
  8277.929  8277.900  0.500  0.639487  132.21  69.7489  28.8837
  8297.910  8297.900  0.500  0.631098  132.678  70.5858  29.3927
  8319.148  8317.900  0.500  0.623723  132.235  70.871  29.644
  8329.879  8329.900  0.500  0.621633  132.089  70.9406  29.6922
  8333.882  8333.900  0.500  0.621741  131.869  70.8148  29.6155
  8337.880  8337.900  0.500  0.622836  131.745  70.6709  29.5065
  8341.879  8341.900  0.500  0.626004  131.609  70.3743  29.2755
  8345.882  8345.900  0.500  0.633416  131.479  69.7858  28.8027
  8348.379  8348.400  0.500  0.643055  131.345  69.0457  28.2097
  8349.375  8349.400  0.500  0.649413  131.27  68.569  27.8341
  8350.376  8350.400  0.500  0.658266  131.181  67.9188  27.319
  8351.372  8351.400  0.500  0.669952  131.085  67.0807  26.658
  8352.377  8352.400  0.500  0.681788  130.996  66.2461  26.0015
  8353.385  8353.400  0.500  0.693470  130.954  65.456  25.377
  8354.385  8354.400  0.500  0.709493  130.941  64.4092  24.5471
  8355.387  8355.400  0.500  0.735036  130.929  62.779  23.2849
  8356.381  8356.400  0.500  0.775945  130.921  60.2588  21.3785
  8357.385  8357.400  0.500  0.839954  130.901  56.5138  18.6799
  8358.385  8358.400  0.500  0.929874  130.882  51.6464  15.4404
  8359.398  8359.400  0.500  1.041548  130.869  46.1847  12.2009
  8360.399  8360.400  0.500  1.140331  130.865  41.8394  9.975077
  8361.394  8361.400  0.500  1.199734  130.862  39.4255  8.897887
  8362.392  8362.400  0.500  1.223051  131.353  38.6613  8.486878
  8363.391  8363.400  0.500  1.213492  131.331  39.0259  8.543509
  8364.393  8364.400  0.500  1.173257  131.315  40.6233  9.228286
  8365.398  8365.400  0.500  1.108531  131.3  43.3346  10.585
  8366.398  8366.400  0.500  1.038215  131.284  46.486  12.3137
  8367.397  8367.400  0.500  0.979227  131.262  49.3022  13.9694
  8368.391  8368.400  0.500  0.935652  131.252  51.4943  15.3314
  8369.395  8369.400  0.500  0.905728  131.231  53.0499  16.3218
  8370.404  8370.400  0.500  0.885342  131.219  54.1376  17.0165
  8371.408  8371.400  0.500  0.869903  131.202  54.9725  17.5551
  8372.406  8372.400  0.500  0.858246  131.175  55.6059  17.9641
  8373.401  8373.400  0.500  0.850835  131.153  56.0098  18.2385
  8374.393  8374.400  0.500  0.846868  131.142  56.228  18.4086
  8375.395  8375.400  0.500  0.844940  131.117  56.3255  18.4846
  8376.403  8376.400  0.500  0.845262  131.101  56.3008  18.4697
  8377.402  8377.400  0.500  0.846754  131.089  56.2117  18.3923
  8378.398  8378.400  0.500  0.849055  131.074  56.0757  18.2891
  8379.401  8379.400  0.500  0.851307  131.049  55.9393  18.2104
  8380.392  8380.400  0.500  0.853241  131.021  55.819  18.1691
  8381.395  8381.400  0.500  0.854188  130.995  55.7551  18.1796
  8382.404  8382.400  0.500  0.854151  130.962  55.7433  18.231
  8383.890  8383.890  0.500  0.852723  130.909  55.8002  18.3521
  8385.923  8385.910  0.500  0.851653  130.845  55.8327  18.4249
  8388.029  8388.020  0.500  0.855922  130.769  55.5627  18.2285
  8390.208  8390.200  0.500  0.864576  130.707  55.0575  17.8495
  8392.470  8392.460  0.500  0.874315  130.658  54.5036  17.4255
  8394.794  8394.790  0.500  0.884680  130.605  53.9198  16.9488
  8397.213  8397.200  0.500  0.894817  130.545  53.3514  16.4952
  8399.688  8399.680  0.500  0.899357  130.484  53.085  16.3224
  8402.252  8402.240  0.500  0.894705  130.427  53.3092  16.5167
  8404.881  8404.880  0.500  0.882706  130.373  53.9302  16.9335
  8407.603  8407.600  0.500  0.870051  130.331  54.5996  17.36
  8410.400  8410.390  0.500  0.860177  130.266  55.1141  17.6735
  8413.250  8413.250  0.500  0.853147  130.201  55.4748  17.9089
  8416.203  8416.190  0.500  0.848858  130.137  55.6861  18.0865
  8419.221  8419.210  0.500  0.846883  130.072  55.7681  18.1918
  8422.321  8422.310  0.500  0.846382  130.007  55.7683  18.2509
  8425.496  8425.480  0.500  0.847064  129.942  55.7024  18.2708
  8428.738  8428.730  0.500  0.847936  129.874  55.6248  18.2564
  8432.061  8432.050  0.500  0.848278  129.802  55.5747  18.2114
  8435.458  8435.450  0.500  0.848961  129.722  55.5028  18.117
  8438.934  8438.930  0.500  0.849278  129.647  55.4532  18.0117
  8442.495  8442.480  0.500  0.849354  129.582  55.4211  17.9298
  8446.127  8446.110  0.500  0.849490  129.494  55.3761  17.8801
  8449.823  8449.810  0.500  0.849515  129.403  55.3356  17.8707
  8453.602  8453.590  0.500  0.849414  129.32  55.3058  17.8877
  8457.455  8457.450  0.500  0.848961  129.228  55.2913  17.9033
  8461.392  8461.380  0.500  0.847705  129.128  55.3178  17.9313
  8465.400  8465.390  0.500  0.845768  129.039  55.3872  17.9862
  8469.502  8469.480  0.500  0.843236  128.945  55.4871  18.0466
  8473.663  8473.640  0.500  0.840178  128.836  55.6099  18.1094
  8477.899  8477.880  0.500  0.836086  128.733  55.7932  18.1969
  8482.204  8482.190  0.500  0.831789  128.639  55.9925  18.3323
  8486.591  8486.580  0.500  0.828125  128.54  56.1549  18.4923
  8491.060  8491.050  0.500  0.825249  128.428  56.2675  18.6425
  8495.599  8495.590  0.500  0.823625  128.323  56.3129  18.7292
  8500.224  8500.210  0.500  0.822562  128.215  56.3254  18.7215
  8504.913  8504.900  0.500  0.822288  128.101  56.291  18.675
  8509.694  8509.670  0.500  0.822212  127.989  56.2458  18.6436
  8514.528  8514.520  0.500  0.822048  127.854  56.1956  18.6071
  8519.457  8519.450  0.500  0.821206  127.711  56.1802  18.5504
  8524.458  8524.450  0.500  0.818954  127.481  56.2053  18.5213
  8529.533  8529.520  0.500  0.816235  122.808  54.2926  17.9191
  8534.684  8534.670  0.500  0.812997  127.065  56.3566  18.7002
  8539.904  8539.900  0.500  0.810343  127.21  56.571  18.8729
  8545.211  8545.210  0.500  0.808049  127.106  56.6546  18.9608
  8550.598  8550.590  0.500  0.806434  126.981  56.6905  18.9909
  8556.061  8556.050  0.500  0.804454  126.847  56.7426  19.0133
  8561.591  8561.580  0.500  0.802648  126.702  56.7802  19.0336
  8567.204  8567.190  0.500  0.800450  126.544  56.8341  19.0588
  8572.878  8572.870  0.500  0.797666  126.38  56.9187  19.1145
  8578.651  8578.640  0.500  0.794988  126.195  56.9878  19.2064
  8584.477  8584.470  0.500  0.792134  125.962  57.0452  19.3009
  8590.390  8590.390  0.500  0.789571  124.906  56.7124  19.2457
  8596.394  8596.380  0.500  0.786739  125.211  57.0117  19.3738
  8602.457  8602.450  0.500  0.784661  125.35  57.194  19.4458
  8608.606  8608.590  0.500  0.782726  124.871  57.0857  19.4132
  8614.834  8614.810  0.500  0.780903  122.36  56.0399  19.0688
  8621.122  8621.100  0.500  0.778862  126.315  57.9694  19.7396
  8627.477  8627.470  0.500  0.776357  125.856  57.9038  19.7509
  8633.929  8633.920  0.500  0.773516  125.421  57.8676  19.7804
  8640.464  8640.450  0.500  0.770719  124.376  57.5464  19.7189
  8647.070  8647.050  0.500  0.767846  124.702  57.8631  19.8879
  8653.751  8653.720  0.500  0.765005  124.856  58.0994  20.0397
  8660.481  8660.470  0.500  0.761955  124.675  58.1925  20.1174
  8667.319  8667.300  0.500  0.759233  124.506  58.2717  20.1772
  8674.233  8674.210  0.500  0.756471  124.314  58.3428  20.2239
  8681.213  8681.190  0.500  0.753585  124.128  58.4241  20.2876
  8688.269  8688.250  0.500  0.750668  123.922  58.4977  20.3659
  8695.393  8695.380  0.500  0.747721  123.686  58.5584  20.4427
  8702.613  8702.590  0.500  0.744641  123.769  58.7784  20.5651
  8709.894  8709.880  0.500  0.741884  122.712  58.4373  20.4822
  8717.260  8717.240  0.500  0.738919  123.741  59.1024  20.7536
  8724.698  8724.680  0.500  0.736424  123.562  59.1644  20.829
  8732.210  8732.190  0.500  0.733587  123.369  59.2399  20.9026
  8739.802  8739.780  0.500  0.730584  123.171  59.3227  20.9672
  8747.470  8747.450  0.500  0.727438  122.97  59.4124  21.0332
  8755.201  8755.190  0.500  0.724529  122.784  59.4951  21.1022
  8763.026  8763.010  0.500  0.721088  122.568  59.5952  21.1898
  8770.927  8770.910  0.500  0.717818  122.37  59.6943  21.2777
  8778.903  8778.880  0.500  0.714611  122.166  59.786  21.3739
  8786.950  8786.930  0.500  0.711428  121.931  59.8611  21.4576
  8795.069  8795.050  0.500  0.708130  121.703  59.9466  21.5534
  8803.270  8803.250  0.500  0.705216  121.505  60.0235  21.6471
  8811.551  8811.530  0.500  0.701703  121.289  60.1278  21.734
  8819.897  8819.880  0.500  0.698380  121.076  60.2221  21.8022
  8828.327  8828.310  0.500  0.695150  120.858  60.3081  21.8668
  8836.830  8836.810  0.500  0.691768  120.645  60.4058  21.9477
  8845.411  8845.390  0.500  0.688526  120.42  60.4891  22.0386
  8854.059  8854.050  0.500  0.685271  120.198  60.5742  22.1321
  8862.813  8862.790  0.500  0.681807  119.965  60.6665  22.2292
  8871.615  8871.600  0.500  0.678563  119.738  60.7485  22.324
  8880.510  8880.480  0.500  0.675069  119.486  60.8326  22.4183
  8889.453  8889.440  0.500  0.671585  119.26  60.9295  22.5206
  8898.497  8898.480  0.500  0.668364  119  60.993  22.596
  8903.055  8903.030  0.500  0.666710  118.872  61.0284  22.629