File: xdidata/Er/Er-L1-Er2O3.xdi
# XDI/1.0 BlueSky/1.10.0 BMM/2023-1.0-py310-tiled
# Beamline.name: BMM (06BM) -- Beamline for Materials Measurement (NIST)
# Beamline.xray_source: NSLS-II three-pole wiggler
# Beamline.collimation: paraboloid mirror, 5 nm Rh on 30 nm Pt
# Beamline.focusing: not in use
# Beamline.harmonic_rejection: flat mirror, Pt stripe, pitch = 7.0 mrad relative to beam
# Beamline.software: Bluesky 1.10.0, Ophyd 1.7.0, DataBroker 2.0.0b13, Python 3.10.8, 2023-1.0-py310-tiled
# Detector.I0: 10 cm N2
# Detector.I1: 25 cm N2
# Detector.I2: 25 cm N2
# Element.symbol: Er
# Element.edge: L1
# Element.reference: Er
# Element.reference_material: Er2O3
# Facility.name: NSLS-II
# Facility.energy: 3.0
# Facility.current: 400.0
# Facility.mode: top-off
# Facility.GUP: 123456
# Facility.SAF: 301027
# Facility.cycle: 2023-2
# Mono.name: Si(111)
# Mono.d_spacing: 3.13519
# Mono.encoder_resolution: 0.0000050 deg/ct
# Mono.angle_offset: 16.0754 deg
# Mono.scan_mode: pseudo channel cut
# Mono.scan_type: step
# Mono.direction: forward in energy
# Sample.name: Er2O3
# Sample.prep: Powder in PEG pellet
# Sample.x: 123.848 mm
# Sample.y: 114.690 mm
# Sample.SDD_position: 205.000 mm
# Scan.experimenters: Bruce Ravel
# Scan.edge_energy: 9751.3
# Scan.start_time: 2023-05-08T22:39:03
# Scan.end_time: 2023-05-08T22:44:48
# Scan.transient_id: 75685
# Scan.uid: 9cdaaa9b-47cd-4f23-8ab9-6170527e014b
# Scan.plot_hint: ln(I0/It)  --  ln($5/$6)
# Column.1: energy eV
# Column.2: requested_energy eV
# Column.3: measurement_time seconds
# Column.4: xmu
# Column.5: I0 nA
# Column.6: It nA
# Column.7: Ir nA
# ///////////
# sample courtesy Martin Stennett, University of Sheffield
# -----------
# energy  requested_energy  measurement_time  xmu  I0  It  Ir
  9551.344  9551.300  0.500  1.727074  104.748  18.6246  7.212859
  9571.398  9571.300  0.500  1.714217  104.369  18.7973  7.315535
  9591.331  9591.300  0.500  1.704927  103.989  18.9037  7.388346
  9611.325  9611.300  0.500  1.693090  103.602  19.0575  7.485523
  9631.340  9631.300  0.500  1.682562  103.205  19.1855  7.568520
  9651.316  9651.300  0.500  1.673942  102.659  19.2492  7.622236
  9671.313  9671.300  0.500  1.664477  102.256  19.356  7.693697
  9691.321  9691.300  0.500  1.653108  101.859  19.5013  7.788486
  9711.312  9711.300  0.500  1.642146  101.427  19.6325  7.877551
  9723.287  9723.300  0.500  1.638167  101.246  19.6757  7.908054
  9727.276  9727.300  0.500  1.637498  101.144  19.6691  7.909727
  9731.276  9731.300  0.500  1.636857  101.075  19.6683  7.911675
  9735.276  9735.300  0.500  1.636597  100.99  19.6568  7.910009
  9739.275  9739.300  0.500  1.636358  100.918  19.6476  7.907369
  9741.760  9741.800  0.500  1.636532  100.865  19.6339  7.901945
  9742.769  9742.800  0.500  1.636774  100.833  19.6228  7.897834
  9743.774  9743.800  0.500  1.637101  100.814  19.6126  7.891593
  9744.779  9744.800  0.500  1.637878  100.791  19.5931  7.884096
  9745.777  9745.800  0.500  1.638552  100.766  19.5749  7.874672
  9746.774  9746.800  0.500  1.639399  100.733  19.552  7.863427
  9747.780  9747.800  0.500  1.640576  100.73  19.5283  7.850183
  9748.774  9748.800  0.500  1.642510  100.707  19.4862  7.828070
  9749.776  9749.800  0.500  1.645534  100.673  19.4207  7.795757
  9750.787  9750.800  0.500  1.649932  100.657  19.3324  7.748267
  9751.782  9751.800  0.500  1.656366  100.627  19.2028  7.679249
  9752.797  9752.800  0.500  1.664752  100.606  19.0385  7.591284
  9753.800  9753.800  0.500  1.673901  100.578  18.8598  7.498060
  9754.779  9754.800  0.500  1.682033  100.562  18.7041  7.414155
  9755.782  9755.800  0.500  1.689985  100.537  18.5513  7.335279
  9756.794  9756.800  0.500  1.698681  100.521  18.3877  7.250081
  9757.794  9757.800  0.500  1.707385  100.493  18.2234  7.163893
  9758.794  9758.800  0.500  1.716177  100.472  18.06  7.078547
  9759.798  9759.800  0.500  1.725547  100.447  17.8871  6.987413
  9760.795  9760.800  0.500  1.735935  100.429  17.6991  6.888967
  9761.791  9761.800  0.500  1.748241  100.403  17.4781  6.775054
  9762.800  9762.800  0.500  1.762769  100.38  17.2221  6.645318
  9763.797  9763.800  0.500  1.778096  100.359  16.9567  6.508126
  9764.807  9764.800  0.500  1.793225  100.332  16.6976  6.375532
  9765.800  9765.800  0.500  1.804958  100.305  16.4983  6.275371
  9766.790  9766.800  0.500  1.810836  100.704  16.4669  6.251405
  9767.792  9767.800  0.500  1.811219  100.679  16.4564  6.245915
  9768.806  9768.800  0.500  1.808545  100.631  16.4927  6.265798
  9769.804  9769.800  0.500  1.805187  100.609  16.5445  6.293140
  9770.807  9770.800  0.500  1.803009  100.546  16.5703  6.306684
  9771.797  9771.800  0.500  1.802865  100.488  16.5631  6.306332
  9772.800  9772.800  0.500  1.803740  100.21  16.5028  6.279596
  9773.795  9773.800  0.500  1.805378  98.9793  16.2734  6.190333
  9774.799  9774.800  0.500  1.806145  100.174  16.4572  6.257497
  9775.802  9775.800  0.500  1.805877  100.542  16.5221  6.284347
  9777.306  9777.290  0.500  1.803823  100.504  16.5498  6.299258
  9779.315  9779.310  0.500  1.797045  100.436  16.651  6.352279
  9781.431  9781.420  0.500  1.786458  100.322  16.8092  6.435519
  9783.620  9783.600  0.500  1.774307  98.7871  16.7544  6.441867
  9785.867  9785.860  0.500  1.762763  100.364  17.2194  6.647804
  9788.210  9788.190  0.500  1.752714  100.268  17.3767  6.731979
  9790.613  9790.600  0.500  1.746170  100.075  17.4572  6.780030
  9793.091  9793.080  0.500  1.743130  99.6725  17.4399  6.782478
  9795.654  9795.640  0.500  1.741690  100.162  17.5508  6.827880
  9798.280  9798.280  0.500  1.741868  100.093  17.5356  6.822418
  9801.020  9801.000  0.500  1.742935  99.9281  17.488  6.801648
  9803.786  9803.790  0.500  1.744499  99.68  17.4173  6.772596
  9806.666  9806.650  0.500  1.746264  99.9537  17.4344  6.774717
  9809.593  9809.590  0.500  1.749778  99.8923  17.3625  6.740380
  9812.619  9812.610  0.500  1.753997  99.8199  17.2769  6.698886
  9815.712  9815.710  0.500  1.758488  99.7458  17.1867  6.653843
  9818.895  9818.880  0.500  1.763519  99.6848  17.09  6.605371
  9822.139  9822.130  0.500  1.765968  99.4958  17.0159  6.571475
  9825.464  9825.450  0.500  1.765162  99.534  17.0361  6.583772
  9828.858  9828.850  0.500  1.760868  98.9377  17.007  6.580547
  9832.330  9832.330  0.500  1.753519  99.3764  17.2084  6.677050
  9835.897  9835.880  0.500  1.745112  98.9376  17.277  6.722523
  9839.524  9839.510  0.500  1.739314  99.2251  17.428  6.796980
  9843.213  9843.210  0.500  1.736093  98.5991  17.3739  6.783010
  9846.993  9846.990  0.500  1.734468  99.0585  17.4832  6.832375
  9850.864  9850.850  0.500  1.733365  98.9917  17.4907  6.837535
  9854.797  9854.780  0.500  1.730817  98.9205  17.5227  6.857788
  9858.796  9858.790  0.500  1.726747  98.8357  17.5791  6.889442
  9862.900  9862.880  0.500  1.722871  98.7619  17.6342  6.921023
  9867.057  9867.040  0.500  1.719435  98.6831  17.6808  6.948849
  9871.294  9871.280  0.500  1.716130  98.5974  17.7239  6.976185
  9875.598  9875.590  0.500  1.713919  98.5106  17.7475  6.990147
  9879.985  9879.980  0.500  1.713396  98.212  17.703  6.975249
  9884.466  9884.450  0.500  1.714118  98.1745  17.6834  6.967374
  9888.997  9888.990  0.500  1.716208  98.1913  17.6495  6.951178
  9893.617  9893.610  0.500  1.716774  98.0832  17.6201  6.938165
  9898.301  9898.300  0.500  1.714117  97.9902  17.6503  6.957241
  9903.066  9903.070  0.500  1.711231  97.8839  17.6821  6.977803
  9907.928  9907.920  0.500  1.708806  97.7866  17.7074  6.995436
  9912.864  9912.850  0.500  1.704540  97.6856  17.7647  7.030069
  9917.860  9917.850  0.500  1.698530  97.5765  17.8518  7.077917
  9922.929  9922.920  0.500  1.692837  97.4497  17.9304  7.125788
  9928.068  9928.070  0.500  1.688636  97.292  17.9768  7.156370
  9933.305  9933.300  0.500  1.687333  95.9036  17.7433  7.066691
  9938.626  9938.610  0.500  1.685643  97.1985  18.0133  7.179993
  9944.012  9943.990  0.500  1.683659  97.0591  18.0232  7.190657
  9949.468  9949.450  0.500  1.680644  96.9252  18.0527  7.211754
  9954.990  9954.980  0.500  1.677745  96.236  17.9764  7.190311
  9960.596  9960.590  0.500  1.674193  96.6424  18.1165  7.256298
  9966.294  9966.270  0.500  1.670047  96.2931  18.126  7.269957
  9972.055  9972.040  0.500  1.666519  96.494  18.228  7.322413
  9977.900  9977.870  0.500  1.664146  96.3434  18.2428  7.335249
  9983.813  9983.790  0.500  1.662975  91.9816  17.4373  7.015876
  9989.814  9989.780  0.500  1.661440  96.0608  18.2386  7.343378
  9995.871  9995.850  0.500  1.659561  95.8153  18.2262  7.345231
  10002.004  10001.990  0.500  1.656624  95.8812  18.2924  7.380830
  10008.223  10008.210  0.500  1.653291  95.7387  18.3262  7.404942
  10014.520  10014.500  0.500  1.649205  93.3638  17.9448  7.262213
  10020.907  10020.870  0.500  1.644457  95.402  18.4238  7.469666
  10027.354  10027.320  0.500  1.639975  95.2355  18.4743  7.503310
  10033.884  10033.850  0.500  1.635721  94.8786  18.4835  7.518548
  10040.484  10040.450  0.500  1.631762  95.085  18.5972  7.578852
  10047.145  10047.120  0.500  1.628498  94.9171  18.625  7.600479
  10053.898  10053.870  0.500  1.625734  94.7615  18.646  7.616032
  10060.731  10060.700  0.500  1.622662  94.5986  18.6712  7.637367
  10067.647  10067.610  0.500  1.619180  94.4515  18.7072  7.662294
  10074.622  10074.590  0.500  1.615428  94.3022  18.7478  7.690262
  10081.677  10081.650  0.500  1.611934  94.1457  18.7822  7.715665
  10088.803  10088.780  0.500  1.609048  91.6233  18.3318  7.540108
  10096.020  10095.990  0.500  1.605801  93.7956  18.8275  7.754932
  10103.308  10103.280  0.500  1.602345  93.6702  18.8674  7.781510
  10110.670  10110.640  0.500  1.598397  93.52  18.9117  7.814343
  10118.117  10118.080  0.500  1.594579  93.347  18.9489  7.840605
  10125.625  10125.590  0.500  1.591008  93.1855  18.9838  7.866031
  10133.202  10133.180  0.500  1.587164  93.0328  19.0257  7.894368
  10140.888  10140.850  0.500  1.583267  92.8534  19.0631  7.922989
  10148.622  10148.590  0.500  1.578849  92.6912  19.1141  7.957377
  10156.435  10156.410  0.500  1.574448  92.5074  19.1603  7.992328
  10164.340  10164.310  0.500  1.569907  92.3457  19.2139  8.030299
  10172.317  10172.280  0.500  1.565629  92.2318  19.2724  8.067373
  10180.369  10180.330  0.500  1.561823  92.275  19.355  8.114868
  10188.483  10188.450  0.500  1.557773  92.1368  19.4044  8.148056
  10196.683  10196.650  0.500  1.554307  91.981  19.4389  8.174621
  10204.950  10204.930  0.500  1.551064  91.7909  19.4617  8.196048
  10213.317  10213.280  0.500  1.547543  91.5967  19.4891  8.219242
  10221.743  10221.710  0.500  1.543520  91.4172  19.5293  8.250339
  10230.238  10230.210  0.500  1.539083  91.2214  19.5741  8.282635
  10238.820  10238.790  0.500  1.534377  90.6832  19.5504  8.289399
  10247.475  10247.450  0.500  1.529819  90.8517  19.6762  8.358909
  10256.214  10256.190  0.500  1.525051  90.6525  19.7269  8.394214
  10265.018  10265.000  0.500  1.520797  90.4591  19.7687  8.426076
  10273.901  10273.880  0.500  1.516454  90.2311  19.8047  8.456419
  10282.860  10282.840  0.500  1.512557  90.0673  19.8459  8.487966
  10291.913  10291.880  0.500  1.508981  89.8657  19.8725  8.512749
  10296.466  10296.430  0.500  1.506862  89.773  19.8941  8.528988