File: xdidata/Data/Fe/Fe-Andradite.xdi
# XDI/1.0 BlueSky/1.10.0 BMM/2023-1.0-py310-tiled
# Beamline.name: BMM (06BM) -- Beamline for Materials Measurement (NIST)
# Beamline.xray_source: NSLS-II three-pole wiggler
# Beamline.collimation: paraboloid mirror, 5 nm Rh on 30 nm Pt
# Beamline.focusing: not in use
# Beamline.harmonic_rejection: flat mirror, Si stripe, pitch = 7.0 mrad relative to beam
# Beamline.software: Bluesky 1.10.0, Ophyd 1.7.0, DataBroker 2.0.0b13, Python 3.10.8, 2023-1.0-py310-tiled
# Detector.I0: 10 cm N2
# Detector.I1: 25 cm N2
# Detector.I2: 25 cm N2
# Element.symbol: Fe
# Element.edge: K
# Element.reference: Fe
# Element.reference_material: Fe foil
# Facility.name: NSLS-II
# Facility.energy: 3.0
# Facility.current: 399.9
# Facility.mode: top-off
# Facility.GUP: 123456
# Facility.SAF: 301027
# Facility.cycle: 2023-2
# Mono.name: Si(111)
# Mono.d_spacing: 3.13519
# Mono.encoder_resolution: 0.0000050 deg/ct
# Mono.angle_offset: 16.0754 deg
# Mono.scan_mode: pseudo channel cut
# Mono.scan_type: step
# Mono.direction: forward in energy
# Sample.name: Ca3Fe2Si3O12
# Sample.prep: PEG pellet
# Sample.x: 142.329 mm
# Sample.y: 114.126 mm
# Sample.SDD_position: 205.000 mm
# Scan.experimenters: Bruce Ravel
# Scan.edge_energy: 7112.0
# Scan.start_time: 2023-05-05T19:17:03
# Scan.end_time: 2023-05-05T19:25:17
# Scan.transient_id: 74581
# Scan.uid: a7717a87-a9c9-43f2-93ae-b62938e1b53a
# Scan.plot_hint: ln(I0/It)  --  ln($5/$6)
# Column.1: energy eV
# Column.2: requested_energy eV
# Column.3: measurement_time seconds
# Column.4: xmu
# Column.5: I0 nA
# Column.6: It nA
# Column.7: Ir nA
# ///////////
# courtesy Martin Stennett, University of Sheffield
# -----------
# energy  requested_energy  measurement_time  xmu  I0  It  Ir
  6912.005  6912.000  0.500  2.255592  154.325  16.175  3.035486
  6942.015  6942.000  0.500  2.220603  154.063  16.7225  3.205757
  6972.014  6972.000  0.500  2.187125  154.014  17.2864  3.383266
  7002.013  7002.000  0.500  2.153603  153.855  17.8573  3.566524
  7032.008  7032.000  0.500  2.120724  153.655  18.4301  3.753054
  7062.008  7062.000  0.500  2.088752  152.724  18.9135  3.920368
  7083.985  7084.000  0.500  2.066571  153.416  19.4254  4.061794
  7089.988  7090.000  0.500  2.060384  153.518  19.559  4.092891
  7095.986  7096.000  0.500  2.054955  153.449  19.6566  4.102733
  7102.001  7102.000  0.500  2.049652  153.288  19.7404  4.084812
  7102.884  7102.900  0.500  2.049065  153.264  19.7488  4.076891
  7103.787  7103.800  0.500  2.048348  153.188  19.7532  4.065028
  7104.686  7104.700  0.500  2.047542  153.181  19.7683  4.051365
  7105.593  7105.600  0.500  2.047057  153.122  19.7702  4.030644
  7106.490  7106.500  0.500  2.046737  153.07  19.7699  4.001737
  7107.385  7107.400  0.500  2.046054  153.048  19.7806  3.966497
  7108.291  7108.300  0.500  2.045547  153.044  19.79  3.908335
  7109.188  7109.200  0.500  2.045238  153  19.7904  3.812455
  7110.093  7110.100  0.500  2.045231  152.965  19.786  3.603685
  7110.995  7111.000  0.500  2.046128  152.869  19.7559  3.053359
  7111.891  7111.900  0.500  2.047958  152.753  19.7049  2.208997
  7112.796  7112.800  0.500  2.052407  152.7  19.6105  1.712781
  7113.697  7113.700  0.500  2.055217  152.646  19.5486  1.456150
  7114.600  7114.600  0.500  2.054804  152.619  19.5533  1.281859
  7115.502  7115.500  0.500  2.052252  152.571  19.597  1.198469
  7116.393  7116.400  0.500  2.050228  152.504  19.6281  1.162983
  7117.299  7117.300  0.500  2.052872  152.508  19.5768  1.085637
  7118.199  7118.200  0.500  2.059764  152.459  19.4361  0.912687
  7119.104  7119.100  0.500  2.074344  152.437  19.152  0.713789
  7120.000  7120.000  0.500  2.096760  152.381  18.7206  0.547330
  7120.892  7120.900  0.500  2.128425  152.332  18.1313  0.407963
  7121.801  7121.800  0.500  2.170888  152.299  17.3737  0.310852
  7122.705  7122.700  0.500  2.233531  152.287  16.3175  0.244813
  7123.597  7123.600  0.500  2.311986  152.241  15.0816  0.197436
  7124.499  7124.500  0.500  2.372148  152.194  14.1967  0.166411
  7125.397  7125.400  0.500  2.415841  152.152  13.586  0.144617
  7126.299  7126.300  0.500  2.456585  152.094  13.0386  0.126574
  7127.203  7127.200  0.500  2.533934  152.021  12.0623  0.105382
  7128.093  7128.100  0.500  2.635147  151.899  10.8924  0.083942
  7128.996  7129.000  0.500  2.711802  151.908  10.0893  0.067005
  7129.899  7129.900  0.500  2.752606  151.812  9.679783  0.055544
  7130.800  7130.800  0.500  2.760556  151.731  9.598011  0.050445
  7131.706  7131.700  0.500  2.730925  151.664  9.882264  0.052633
  7132.597  7132.600  0.500  2.699167  151.641  10.1996  0.059879
  7133.496  7133.500  0.500  2.700278  151.638  10.1881  0.068130
  7134.398  7134.400  0.500  2.711466  151.619  10.0735  0.075499
  7135.301  7135.300  0.500  2.700982  151.605  10.1787  0.082665
  7136.203  7136.200  0.500  2.680632  151.586  10.3866  0.088088
  7136.998  7137.000  0.500  2.671247  151.577  10.4839  0.090082
  7140.017  7140.010  0.500  2.625602  151.561  10.9724  0.084452
  7143.186  7143.200  0.500  2.607573  151.985  11.2033  0.083908
  7146.559  7146.560  0.500  2.542881  151.974  11.9512  0.087344
  7150.087  7150.080  0.500  2.501882  151.931  12.4478  0.075800
  7153.786  7153.780  0.500  2.462011  151.91  12.9524  0.074407
  7157.656  7157.650  0.500  2.427918  151.858  13.397  0.080373
  7161.701  7161.700  0.500  2.413187  151.788  13.5895  0.082720
  7165.917  7165.910  0.500  2.428258  151.645  13.3736  0.085961
  7170.292  7170.290  0.500  2.466102  151.558  12.8696  0.086157
  7174.849  7174.850  0.500  2.513355  151.453  12.2671  0.093051
  7179.585  7179.580  0.500  2.526203  151.39  12.1054  0.105911
  7184.485  7184.480  0.500  2.510898  151.277  12.283  0.105246
  7189.568  7189.550  0.500  2.480249  151.198  12.6586  0.093776
  7194.796  7194.790  0.500  2.477518  151.007  12.6772  0.081842
  7200.222  7200.210  0.500  2.489588  150.889  12.5154  0.092767
  7205.801  7205.790  0.500  2.478470  150.757  12.6442  0.117101
  7211.562  7211.550  0.500  2.458548  150.605  12.8856  0.107621
  7217.494  7217.480  0.500  2.436171  150.426  13.1616  0.066861
  7223.590  7223.580  0.500  2.415636  150.265  13.4202  0.064583
  7229.858  7229.850  0.500  2.396931  150.318  13.6784  0.099481
  7236.305  7236.290  0.500  2.394923  150.134  13.6891  0.139195
  7242.910  7242.900  0.500  2.404030  150.028  13.5555  0.136835
  7249.699  7249.690  0.500  2.415506  149.776  13.3783  0.120099
  7256.666  7256.650  0.500  2.414225  149.753  13.3934  0.127734
  7263.787  7263.770  0.500  2.403198  138.389  12.5143  0.111888
  7271.081  7271.070  0.500  2.391354  149.896  13.7163  0.111022
  7278.559  7278.550  0.500  2.375206  149.832  13.9337  0.101811
  7286.202  7286.190  0.500  2.369329  149.399  13.9753  0.092085
  7294.012  7294.000  0.500  2.363837  149.464  14.0583  0.102641
  7302.006  7301.990  0.500  2.351931  147.55  14.0446  0.133721
  7310.166  7310.150  0.500  2.338968  149.244  14.3911  0.151802
  7318.479  7318.470  0.500  2.327093  149.049  14.544  0.154056
  7326.983  7326.970  0.500  2.312847  148.852  14.7332  0.157388
  7335.661  7335.650  0.500  2.302784  148.648  14.8618  0.166158
  7344.500  7344.490  0.500  2.293569  148.419  14.9763  0.161963
  7353.517  7353.500  0.500  2.290014  148.228  15.0103  0.138389
  7362.703  7362.690  0.500  2.286597  147.989  15.0374  0.124737
  7372.067  7372.050  0.500  2.276130  147.815  15.1777  0.131180
  7381.579  7381.570  0.500  2.263573  147.532  15.3402  0.174345
  7391.282  7391.270  0.500  2.250918  147.316  15.5128  0.193999
  7401.153  7401.150  0.500  2.240100  147.104  15.6589  0.189470
  7411.201  7411.190  0.500  2.227603  146.829  15.8262  0.191844
  7421.404  7421.400  0.500  2.215801  146.537  15.9822  0.196680
  7431.805  7431.790  0.500  2.205194  146.252  16.1213  0.205867
  7442.352  7442.350  0.500  2.195269  145.834  16.2355  0.197564
  7453.091  7453.080  0.500  2.182632  144.528  16.2947  0.186853
  7463.992  7463.980  0.500  2.170687  145.569  16.6093  0.194968
  7475.058  7475.050  0.500  2.160151  145.38  16.7634  0.215538
  7486.308  7486.290  0.500  2.150251  145.029  16.8893  0.233479
  7497.731  7497.710  0.500  2.140556  144.68  17.0128  0.248290
  7509.307  7509.290  0.500  2.129292  144.278  17.1577  0.247413
  7521.040  7521.050  0.500  2.118003  143.872  17.3037  0.254396
  7532.982  7532.980  0.500  2.105162  143.515  17.4838  0.257444
  7545.115  7545.080  0.500  2.092407  143.08  17.6547  0.264672
  7557.373  7557.350  0.500  2.079993  142.577  17.8123  0.266501
  7569.809  7569.790  0.500  2.067708  142.168  17.9808  0.268116
  7582.402  7582.410  0.500  2.055836  141.727  18.139  0.288249
  7595.177  7595.190  0.500  2.044461  141.071  18.2617  0.300892
  7608.140  7608.150  0.500  2.032488  140.032  18.3454  0.307857
  7621.297  7621.280  0.500  2.020715  139.923  18.5483  0.319056
  7634.578  7634.580  0.500  2.008319  139.581  18.7337  0.326220
  7648.062  7648.050  0.500  1.996481  139.104  18.8921  0.342112
  7661.688  7661.700  0.500  1.983962  138.622  19.0637  0.351019
  7675.498  7675.510  0.500  1.971372  138.02  19.2214  0.353349
  7689.523  7689.500  0.500  1.959183  137.664  19.407  0.361321
  7703.675  7703.660  0.500  1.946150  136.965  19.5617  0.375458
  7717.977  7717.990  0.500  1.933302  136.355  19.7265  0.391018
  7732.483  7732.490  0.500  1.919763  135.804  19.9145  0.404373
  7747.157  7747.160  0.500  1.906659  135.271  20.098  0.415886
  7762.023  7762.000  0.500  1.894017  134.641  20.2589  0.427963
  7777.013  7777.020  0.500  1.881631  133.996  20.4131  0.443686
  7792.216  7792.200  0.500  1.868934  133.496  20.5969  0.458058
  7807.553  7807.560  0.500  1.855976  132.853  20.765  0.468706
  7823.112  7823.090  0.500  1.842930  132.217  20.937  0.480838
  7838.799  7838.790  0.500  1.829428  131.311  21.0761  0.492732
  7854.651  7854.660  0.500  1.816265  130.047  21.1498  0.505506
  7870.698  7870.710  0.500  1.802994  130.255  21.4667  0.526115
  7886.907  7886.920  0.500  1.789580  129.577  21.6434  0.544033
  7903.287  7903.310  0.500  1.776244  128.811  21.8041  0.561199
  7919.844  7919.870  0.500  1.762816  128.126  21.9815  0.578135
  7936.572  7936.600  0.500  1.749354  127.187  22.116  0.593409
  7953.479  7953.500  0.500  1.736051  126.507  22.2924  0.609167
  7964.829  7964.860  0.500  1.727255  125.928  22.3864  0.619499