File: xdidata/Data/Fe/Fe-Almandine.xdi
# XDI/1.0 BlueSky/1.10.0 BMM/2023-1.0-py310-tiled
# Beamline.name: BMM (06BM) -- Beamline for Materials Measurement (NIST)
# Beamline.xray_source: NSLS-II three-pole wiggler
# Beamline.collimation: paraboloid mirror, 5 nm Rh on 30 nm Pt
# Beamline.focusing: not in use
# Beamline.harmonic_rejection: flat mirror, Si stripe, pitch = 7.0 mrad relative to beam
# Beamline.software: Bluesky 1.10.0, Ophyd 1.7.0, DataBroker 2.0.0b13, Python 3.10.8, 2023-1.0-py310-tiled
# Detector.I0: 10 cm N2
# Detector.I1: 25 cm N2
# Detector.I2: 25 cm N2
# Element.symbol: Fe
# Element.edge: K
# Element.reference: Fe
# Element.reference_material: Fe foil
# Facility.name: NSLS-II
# Facility.energy: 3.0
# Facility.current: 400.6
# Facility.mode: top-off
# Facility.GUP: 123456
# Facility.SAF: 301027
# Facility.cycle: 2023-2
# Mono.name: Si(111)
# Mono.d_spacing: 3.13519
# Mono.encoder_resolution: 0.0000050 deg/ct
# Mono.angle_offset: 16.0754 deg
# Mono.scan_mode: pseudo channel cut
# Mono.scan_type: step
# Mono.direction: forward in energy
# Sample.name: Fe3Al2Si3O12
# Sample.prep: PEG pellet
# Sample.x: 142.329 mm
# Sample.y: 114.126 mm
# Sample.SDD_position: 205.000 mm
# Scan.experimenters: Bruce Ravel
# Scan.edge_energy: 7112.0
# Scan.start_time: 2023-05-05T19:53:02
# Scan.end_time: 2023-05-05T20:01:12
# Scan.transient_id: 74601
# Scan.uid: 445b1a8d-1bfa-493a-a9ec-00d9cb938fdc
# Scan.plot_hint: ln(I0/It)  --  ln($5/$6)
# Column.1: energy eV
# Column.2: requested_energy eV
# Column.3: measurement_time seconds
# Column.4: xmu
# Column.5: I0 nA
# Column.6: It nA
# Column.7: Ir nA
# ///////////
# courtesy Martin Stennett, University of Sheffield
# -----------
# energy  requested_energy  measurement_time  xmu  I0  It  Ir
  6912.007  6912.000  0.500  2.582085  154.688  11.6969  2.197077
  6942.033  6942.000  0.500  2.544102  154.476  12.1331  2.327747
  6972.018  6972.000  0.500  2.507008  154.419  12.587  2.465082
  7002.017  7002.000  0.500  2.470857  154.318  13.0418  2.606401
  7032.008  7032.000  0.500  2.435564  154.078  13.4893  2.748882
  7062.004  7062.000  0.500  2.400952  153.19  13.8839  2.879360
  7083.981  7084.000  0.500  2.379285  153.345  14.2023  2.972408
  7089.992  7090.000  0.500  2.374294  153.45  14.2832  2.990595
  7095.986  7096.000  0.500  2.370273  153.401  14.3361  2.994407
  7102.001  7102.000  0.500  2.368898  153.31  14.3473  2.971469
  7102.891  7102.900  0.500  2.368998  153.291  14.3442  2.962923
  7103.785  7103.800  0.500  2.369798  153.24  14.3279  2.950590
  7104.683  7104.700  0.500  2.369984  153.215  14.3228  2.936820
  7105.587  7105.600  0.500  2.371064  153.198  14.3059  2.918543
  7106.488  7106.500  0.500  2.372105  153.168  14.2881  2.894498
  7107.385  7107.400  0.500  2.373198  153.159  14.2717  2.863086
  7108.289  7108.300  0.500  2.375300  153.121  14.2382  2.813739
  7109.188  7109.200  0.500  2.378378  153.097  14.1922  2.735896
  7110.097  7110.100  0.500  2.383630  153.04  14.1126  2.572631
  7110.993  7111.000  0.500  2.397535  152.962  13.9107  2.154156
  7111.891  7111.900  0.500  2.421221  152.878  13.5776  1.523957
  7112.794  7112.800  0.500  2.418136  152.78  13.6108  1.190419
  7113.699  7113.700  0.500  2.417523  152.743  13.6158  1.016043
  7114.600  7114.600  0.500  2.420409  152.72  13.5746  0.891469
  7115.500  7115.500  0.500  2.428950  152.679  13.4555  0.824732
  7116.395  7116.400  0.500  2.450152  152.645  13.1703  0.782128
  7117.299  7117.300  0.500  2.491529  152.6  12.6327  0.703191
  7118.201  7118.200  0.500  2.575521  152.58  11.6135  0.548237
  7119.099  7119.100  0.500  2.734879  152.52  9.898827  0.372563
  7120.002  7120.000  0.500  2.996293  152.483  7.619887  0.225924
  7120.892  7120.900  0.500  3.308884  152.436  5.572601  0.127222
  7121.799  7121.800  0.500  3.569167  152.398  4.294477  0.077845
  7122.705  7122.700  0.500  3.816013  152.362  3.354300  0.050933
  7123.602  7123.600  0.500  4.096862  152.31  2.532117  0.033647
  7124.501  7124.500  0.500  4.342143  152.236  1.980373  0.023719
  7125.394  7125.400  0.500  4.505711  152.181  1.680955  0.018191
  7126.303  7126.300  0.500  4.514856  152.132  1.665109  0.016459
  7127.203  7127.200  0.500  4.457853  152.037  1.761688  0.015738
  7128.099  7128.100  0.500  4.413680  151.986  1.840631  0.014525
  7128.994  7129.000  0.500  4.287225  152.388  2.094269  0.014338
  7129.899  7129.900  0.500  4.070910  152.289  2.598325  0.015124
  7130.802  7130.800  0.500  3.857469  152.169  3.214016  0.017278
  7131.706  7131.700  0.500  3.712535  152.126  3.714236  0.020026
  7132.601  7132.600  0.500  3.637200  152.112  4.004504  0.023882
  7133.498  7133.500  0.500  3.577091  152.059  4.251113  0.028847
  7134.403  7134.400  0.500  3.522528  152.068  4.489754  0.034022
  7135.303  7135.300  0.500  3.470124  152.061  4.731109  0.038770
  7136.203  7136.200  0.500  3.435433  152.045  4.897579  0.041876
  7136.989  7137.000  0.500  3.426992  152.022  4.938363  0.042747
  7140.023  7140.010  0.500  3.507360  152.018  4.556867  0.035285
  7143.188  7143.200  0.500  3.501063  151.991  4.584850  0.034686
  7146.563  7146.560  0.500  3.491320  151.948  4.628427  0.034214
  7150.087  7150.080  0.500  3.511871  151.937  4.533944  0.028038
  7153.788  7153.780  0.500  3.612370  151.932  4.100309  0.023767
  7157.650  7157.650  0.500  3.756765  151.894  3.548117  0.021597
  7161.703  7161.700  0.500  3.770638  151.822  3.497581  0.021676
  7165.915  7165.910  0.500  3.742744  151.702  3.593663  0.023393
  7170.296  7170.290  0.500  3.711706  151.601  3.704503  0.025053
  7174.851  7174.850  0.500  3.674454  151.506  3.842680  0.029548
  7179.583  7179.580  0.500  3.635388  151.47  3.994814  0.035306
  7184.485  7184.480  0.500  3.611983  151.345  4.086037  0.035219
  7189.561  7189.550  0.500  3.589919  151.266  4.175022  0.031340
  7194.798  7194.790  0.500  3.582327  151.091  4.201969  0.027443
  7200.224  7200.210  0.500  3.570749  150.988  4.248026  0.031748
  7205.799  7205.790  0.500  3.569565  150.851  4.249183  0.039827
  7211.562  7211.550  0.500  3.593271  150.7  4.145475  0.034995
  7217.487  7217.480  0.500  3.607138  150.558  4.084550  0.021027
  7223.590  7223.580  0.500  3.602287  150.358  4.098945  0.020021
  7229.867  7229.850  0.500  3.580342  150.399  4.191056  0.030829
  7236.303  7236.290  0.500  3.573038  150.287  4.218630  0.043443
  7242.910  7242.900  0.500  3.578719  150.157  4.191093  0.042747
  7249.703  7249.690  0.500  3.561140  149.893  4.257912  0.038509
  7256.666  7256.650  0.500  3.535821  149.898  4.367260  0.041936
  7263.782  7263.770  0.500  3.522788  138.776  4.096267  0.036867
  7271.081  7271.070  0.500  3.512180  150.035  4.475815  0.036532
  7278.559  7278.550  0.500  3.507389  150.015  4.496698  0.033135
  7286.200  7286.190  0.500  3.508574  149.555  4.477622  0.029819
  7294.014  7294.000  0.500  3.484432  149.616  4.588887  0.033992
  7302.003  7301.990  0.500  3.466148  147.703  4.613827  0.044429
  7310.166  7310.150  0.500  3.470964  149.362  4.643227  0.049198
  7318.481  7318.470  0.500  3.468415  149.189  4.649683  0.049554
  7326.983  7326.970  0.500  3.448688  148.962  4.735095  0.050822
  7335.665  7335.650  0.500  3.441130  148.821  4.766511  0.053571
  7344.502  7344.490  0.500  3.426210  148.596  4.830855  0.052613
  7353.517  7353.500  0.500  3.409748  148.79  4.917430  0.045802
  7362.698  7362.690  0.500  3.388348  148.539  5.015316  0.041882
  7372.067  7372.050  0.500  3.375552  148.357  5.073703  0.044253
  7381.577  7381.570  0.500  3.371277  148.135  5.087805  0.058109
  7391.282  7391.270  0.500  3.362053  147.879  5.126072  0.064391
  7401.162  7401.150  0.500  3.351205  147.625  5.173091  0.063033
  7411.198  7411.190  0.500  3.338871  147.386  5.228800  0.063703
  7421.404  7421.400  0.500  3.321340  147.07  5.309864  0.065721
  7431.800  7431.790  0.500  3.309494  146.738  5.361030  0.068921
  7442.359  7442.350  0.500  3.294307  146.371  5.429460  0.066483
  7453.093  7453.080  0.500  3.279625  145.038  5.459560  0.063056
  7463.992  7463.980  0.500  3.266949  145.88  5.561324  0.065513
  7475.060  7475.050  0.500  3.256430  145.64  5.610891  0.072536
  7486.305  7486.290  0.500  3.243738  145.26  5.667740  0.078872
  7497.727  7497.710  0.500  3.226813  144.936  5.751611  0.084277
  7509.304  7509.290  0.500  3.212674  144.55  5.817982  0.084447
  7521.047  7521.050  0.500  3.199828  144.114  5.875432  0.086900
  7532.975  7532.980  0.500  3.185224  143.74  5.946377  0.088084
  7545.110  7545.080  0.500  3.169396  143.31  6.023178  0.090731
  7557.382  7557.350  0.500  3.157465  142.864  6.076491  0.091304
  7569.823  7569.790  0.500  3.145651  142.41  6.129149  0.091857
  7582.432  7582.410  0.500  3.131036  141.931  6.198477  0.099000
  7595.212  7595.190  0.500  3.114489  141.361  6.276588  0.103968
  7608.140  7608.150  0.500  3.099663  140.319  6.323388  0.106520
  7621.275  7621.280  0.500  3.085008  140.13  6.408107  0.110726
  7634.566  7634.580  0.500  3.070292  139.916  6.493148  0.113660
  7648.027  7648.050  0.500  3.055597  139.332  6.561797  0.119406
  7661.681  7661.700  0.500  3.041245  138.824  6.632387  0.122495
  7675.503  7675.510  0.500  3.027499  138.304  6.698983  0.123783
  7689.508  7689.500  0.500  3.012170  137.921  6.783633  0.126738
  7703.665  7703.660  0.500  2.996614  137.165  6.852228  0.132102
  7717.967  7717.990  0.500  2.982008  136.57  6.922841  0.137708
  7732.473  7732.490  0.500  2.966952  136.018  6.999479  0.142767
  7747.142  7747.160  0.500  2.952122  135.513  7.077678  0.147108
  7761.990  7762.000  0.500  2.936497  134.858  7.154366  0.151807
  7777.039  7777.020  0.500  2.921103  134.169  7.228246  0.157735
  7792.185  7792.200  0.500  2.906481  133.652  7.306441  0.162983
  7807.538  7807.560  0.500  2.891214  133.063  7.386149  0.167475
  7823.073  7823.090  0.500  2.875906  132.395  7.462471  0.171941
  7838.780  7838.790  0.500  2.860139  131.467  7.527892  0.176563
  7854.643  7854.660  0.500  2.844977  130.169  7.567477  0.181441
  7870.691  7870.710  0.500  2.829710  130.346  7.694319  0.189529
  7886.894  7886.920  0.500  2.814343  129.681  7.773631  0.196298
  7903.287  7903.310  0.500  2.799227  128.934  7.846536  0.202669
  7919.844  7919.870  0.500  2.783913  128.197  7.922105  0.209052
  7936.607  7936.600  0.500  2.768492  127.172  7.980862  0.214884
  7953.471  7953.500  0.500  2.752754  126.44  8.060789  0.221105
  7964.846  7964.860  0.500  2.741998  126.282  8.137815  0.225966