File: xdidata/Data/Fe/Fe-Hedenbergite.xdi
# XDI/1.0 BlueSky/1.10.0 BMM/2023-1.0-py310-tiled
# Beamline.name: BMM (06BM) -- Beamline for Materials Measurement (NIST)
# Beamline.xray_source: NSLS-II three-pole wiggler
# Beamline.collimation: paraboloid mirror, 5 nm Rh on 30 nm Pt
# Beamline.focusing: not in use
# Beamline.harmonic_rejection: flat mirror, Si stripe, pitch = 7.0 mrad relative to beam
# Beamline.software: Bluesky 1.10.0, Ophyd 1.7.0, DataBroker 2.0.0b13, Python 3.10.8, 2023-1.0-py310-tiled
# Detector.I0: 10 cm N2
# Detector.I1: 25 cm N2
# Detector.I2: 25 cm N2
# Element.symbol: Fe
# Element.edge: K
# Element.reference: Fe
# Element.reference_material: Fe foil
# Facility.name: NSLS-II
# Facility.energy: 3.0
# Facility.current: 400.2
# Facility.mode: top-off
# Facility.GUP: 123456
# Facility.SAF: 301027
# Facility.cycle: 2023-2
# Mono.name: Si(111)
# Mono.d_spacing: 3.13519
# Mono.encoder_resolution: 0.0000050 deg/ct
# Mono.angle_offset: 16.0754 deg
# Mono.scan_mode: pseudo channel cut
# Mono.scan_type: step
# Mono.direction: forward in energy
# Sample.name: CaFeSi2O6
# Sample.prep: PEG pellet
# Sample.x: 142.329 mm
# Sample.y: 114.126 mm
# Sample.SDD_position: 205.000 mm
# Scan.experimenters: Bruce Ravel
# Scan.edge_energy: 7112.0
# Scan.start_time: 2023-05-05T19:08:19
# Scan.end_time: 2023-05-05T19:16:21
# Scan.transient_id: 74576
# Scan.uid: bfc24902-2e86-461c-92aa-a3c7fc4224bc
# Scan.plot_hint: ln(I0/It)  --  ln($5/$6)
# Column.1: energy eV
# Column.2: requested_energy eV
# Column.3: measurement_time seconds
# Column.4: xmu
# Column.5: I0 nA
# Column.6: It nA
# Column.7: Ir nA
# ///////////
# courtesy Martin Stennett, University of Sheffield
# -----------
# energy  requested_energy  measurement_time  xmu  I0  It  Ir
  6912.003  6912.000  0.500  1.683876  154.182  28.6244  5.374436
  6942.033  6942.000  0.500  1.656969  154.092  29.3878  5.635333
  6972.006  6972.000  0.500  1.630015  154.043  30.1811  5.908954
  7002.011  7002.000  0.500  1.603804  153.971  30.9681  6.186719
  7032.014  7032.000  0.500  1.578614  153.769  31.7166  6.461843
  7062.004  7062.000  0.500  1.552532  152.913  32.3733  6.712534
  7083.978  7084.000  0.500  1.534667  153.087  32.9945  6.902527
  7089.983  7090.000  0.500  1.529650  153.231  33.1915  6.947199
  7096.325  7096.000  0.500  1.524090  153.134  33.3555  6.964651
  7102.003  7102.000  0.500  1.519250  153.114  33.5129  6.938308
  7102.889  7102.900  0.500  1.518528  153.057  33.5248  6.924532
  7103.785  7103.800  0.500  1.517712  153.054  33.5515  6.905843
  7104.683  7104.700  0.500  1.516909  153.036  33.5745  6.884007
  7105.589  7105.600  0.500  1.516314  153.071  33.6021  6.852814
  7106.488  7106.500  0.500  1.515417  153.369  33.6977  6.823741
  7107.383  7107.400  0.500  1.515129  153.376  33.7089  6.760284
  7108.289  7108.300  0.500  1.514178  153.356  33.7366  6.664487
  7109.191  7109.200  0.500  1.513599  153.312  33.7464  6.500820
  7110.099  7110.100  0.500  1.512837  153.29  33.7673  6.147456
  7110.995  7111.000  0.500  1.512314  153.226  33.7709  5.207936
  7111.891  7111.900  0.500  1.511696  153.111  33.7665  3.774097
  7112.798  7112.800  0.500  1.511565  153.023  33.7514  2.943799
  7113.697  7113.700  0.500  1.510774  152.992  33.7712  2.513766
  7114.598  7114.600  0.500  1.510252  152.971  33.7843  2.212222
  7115.500  7115.500  0.500  1.509234  152.886  33.8  2.066845
  7116.393  7116.400  0.500  1.508464  152.893  33.8276  2.004801
  7117.299  7117.300  0.500  1.507930  152.858  33.8378  1.874636
  7118.197  7118.200  0.500  1.508901  152.801  33.7925  1.583249
  7119.104  7119.100  0.500  1.510055  152.78  33.7487  1.253413
  7120.000  7120.000  0.500  1.512860  152.721  33.6413  0.980050
  7120.894  7120.900  0.500  1.516635  152.649  33.4987  0.750790
  7121.801  7121.800  0.500  1.519812  152.608  33.3835  0.594492
  7122.705  7122.700  0.500  1.523430  152.58  33.2569  0.497229
  7123.600  7123.600  0.500  1.528664  152.497  33.0652  0.431403
  7124.501  7124.500  0.500  1.533642  152.466  32.8944  0.384613
  7125.399  7125.400  0.500  1.538308  152.408  32.7287  0.347460
  7126.303  7126.300  0.500  1.540458  152.347  32.6453  0.315572
  7127.203  7127.200  0.500  1.541898  152.22  32.5712  0.283532
  7128.102  7128.100  0.500  1.545580  152.208  32.4489  0.248367
  7128.998  7129.000  0.500  1.549012  152.162  32.328  0.213234
  7129.899  7129.900  0.500  1.551072  152.041  32.2358  0.184014
  7130.804  7130.800  0.500  1.550669  151.98  32.2358  0.168590
  7131.706  7131.700  0.500  1.548319  151.919  32.2987  0.171497
  7132.601  7132.600  0.500  1.546222  151.862  32.3544  0.189786
  7133.496  7133.500  0.500  1.543492  151.881  32.4468  0.216484
  7134.403  7134.400  0.500  1.540918  151.854  32.5249  0.243576
  7135.301  7135.300  0.500  1.538038  151.846  32.6168  0.264298
  7136.203  7136.200  0.500  1.535604  151.836  32.6941  0.276902
  7136.998  7137.000  0.500  1.533871  151.848  32.7534  0.280342
  7140.021  7140.010  0.500  1.528826  151.83  32.9153  0.252199
  7143.214  7143.200  0.500  1.525956  151.818  33.0071  0.246719
  7146.578  7146.560  0.500  1.520714  151.808  33.1785  0.241644
  7150.098  7150.080  0.500  1.514138  151.811  33.398  0.202835
  7153.801  7153.780  0.500  1.508364  151.734  33.5745  0.192129
  7157.669  7157.650  0.500  1.504658  151.721  33.6962  0.201182
  7161.714  7161.700  0.500  1.502824  151.617  33.735  0.204702
  7165.924  7165.910  0.500  1.502458  151.502  33.7216  0.216228
  7170.303  7170.290  0.500  1.500948  151.409  33.752  0.225579
  7174.860  7174.850  0.500  1.498373  151.281  33.8104  0.256118
  7179.598  7179.580  0.500  1.495122  151.23  33.909  0.296316
  7184.490  7184.480  0.500  1.491283  151.149  34.0212  0.290984
  7189.563  7189.550  0.500  1.486617  151.543  34.2695  0.253079
  7194.801  7194.790  0.500  1.481829  151.388  34.3986  0.221731
  7200.224  7200.210  0.500  1.476902  151.292  34.5466  0.255387
  7205.799  7205.790  0.500  1.471415  151.128  34.6992  0.321495
  7211.560  7211.550  0.500  1.466840  150.946  34.8161  0.290527
  7217.496  7217.480  0.500  1.461687  150.821  34.967  0.176913
  7223.597  7223.580  0.500  1.456773  150.678  35.1059  0.168500
  7229.860  7229.850  0.500  1.451892  150.717  35.2869  0.256520
  7236.305  7236.290  0.500  1.446937  150.54  35.4205  0.360038
  7242.914  7242.900  0.500  1.442419  150.457  35.5613  0.358928
  7249.699  7249.690  0.500  1.437806  150.197  35.6641  0.319837
  7256.666  7256.650  0.500  1.432701  150.137  35.8323  0.341503
  7263.784  7263.770  0.500  1.427214  138.58  33.2558  0.297090
  7271.083  7271.070  0.500  1.421080  150.279  36.2855  0.293773
  7278.564  7278.550  0.500  1.414655  150.248  36.5117  0.266424
  7286.202  7286.190  0.500  1.408820  149.827  36.6225  0.241169
  7294.012  7294.000  0.500  1.402438  149.831  36.8578  0.269420
  7302.001  7301.990  0.500  1.396141  147.977  36.6317  0.349086
  7310.161  7310.150  0.500  1.389911  149.645  37.2761  0.392865
  7318.481  7318.470  0.500  1.383727  149.464  37.4621  0.396185
  7326.981  7326.970  0.500  1.377423  149.27  37.6501  0.402095
  7335.663  7335.650  0.500  1.370803  149.054  37.8452  0.423564
  7344.500  7344.490  0.500  1.363965  148.844  38.0513  0.411752
  7353.519  7353.500  0.500  1.357333  148.649  38.2542  0.353254
  7362.698  7362.690  0.500  1.350428  148.424  38.4611  0.318607
  7372.065  7372.050  0.500  1.343587  148.25  38.6795  0.334785
  7381.584  7381.570  0.500  1.336314  147.953  38.8838  0.441982
  7391.282  7391.270  0.500  1.329390  147.788  39.1104  0.488750
  7401.160  7401.150  0.500  1.322016  147.556  39.3381  0.476416
  7411.198  7411.190  0.500  1.314298  147.305  39.5755  0.479619
  7421.401  7421.400  0.500  1.307043  146.977  39.7747  0.489452
  7431.802  7431.790  0.500  1.299208  146.732  40.0207  0.511270
  7442.354  7442.350  0.500  1.291482  146.35  40.2263  0.489979
  7453.091  7453.080  0.500  1.283771  144.959  40.1524  0.460497
  7463.992  7463.980  0.500  1.276172  145.842  40.7049  0.478147
  7475.060  7475.050  0.500  1.268257  145.637  40.9709  0.527292
  7486.303  7486.290  0.500  1.260519  145.245  41.178  0.569716
  7497.727  7497.710  0.500  1.252234  144.904  41.4229  0.604770
  7509.302  7509.290  0.500  1.244482  144.502  41.6295  0.601172
  7521.047  7521.050  0.500  1.236104  144.114  41.8672  0.615950
  7532.985  7532.980  0.500  1.227506  143.718  42.1125  0.620095
  7545.102  7545.080  0.500  1.219327  143.261  42.3235  0.634643
  7557.382  7557.350  0.500  1.210997  142.847  42.5543  0.636536
  7569.811  7569.790  0.500  1.202552  142.392  42.7784  0.638706
  7582.432  7582.410  0.500  1.193795  141.891  43.0027  0.683833
  7595.172  7595.190  0.500  1.185133  141.282  43.1906  0.711925
  7608.172  7608.150  0.500  1.176652  140.259  43.2431  0.725720
  7621.299  7621.280  0.500  1.167839  140.569  43.7223  0.752128
  7634.601  7634.580  0.500  1.159253  140.331  44.0246  0.768183
  7648.027  7648.050  0.500  1.150496  139.818  44.2495  0.801708
  7661.713  7661.700  0.500  1.141550  139.293  44.4797  0.819208
  7675.528  7675.510  0.500  1.132552  138.716  44.6957  0.822726
  7689.480  7689.500  0.500  1.124190  138.386  44.9639  0.837291
  7703.650  7703.660  0.500  1.114394  137.565  45.1369  0.866755
  7718.010  7717.990  0.500  1.105373  137.001  45.3594  0.899799
  7732.480  7732.490  0.500  1.096352  136.394  45.5677  0.925616
  7747.134  7747.160  0.500  1.087298  135.92  45.8223  0.949535
  7761.985  7762.000  0.500  1.078060  135.269  46.0261  0.973636
  7777.013  7777.020  0.500  1.068461  134.614  46.245  1.006970
  7792.187  7792.200  0.500  1.059299  134.037  46.4705  1.033605
  7807.584  7807.560  0.500  1.049995  133.405  46.6835  1.054961
  7823.068  7823.090  0.500  1.041544  132.709  46.8341  1.076228
  7838.773  7838.790  0.500  1.031908  131.704  46.9296  1.098060
  7854.659  7854.660  0.500  1.022120  130.512  46.9623  1.123273
  7870.696  7870.710  0.500  1.012979  130.68  47.4545  1.164312
  7886.929  7886.920  0.500  1.003438  129.941  47.6385  1.198776
  7903.289  7903.310  0.500  0.993642  129.234  47.8456  1.231969
  7919.846  7919.870  0.500  0.984036  128.45  48.0144  1.263499
  7936.575  7936.600  0.500  0.974514  127.479  48.1074  1.292851
  7953.479  7953.500  0.500  0.965093  126.817  48.3106  1.321055
  7964.843  7964.860  0.500  0.958874  126.184  48.3694  1.339783