File: xdidata/Data/Fe/Fe-Ilvaite.xdi
# XDI/1.0 BlueSky/1.10.0 BMM/2023-1.0-py310-tiled
# Beamline.name: BMM (06BM) -- Beamline for Materials Measurement (NIST)
# Beamline.xray_source: NSLS-II three-pole wiggler
# Beamline.collimation: paraboloid mirror, 5 nm Rh on 30 nm Pt
# Beamline.focusing: not in use
# Beamline.harmonic_rejection: flat mirror, Si stripe, pitch = 7.0 mrad relative to beam
# Beamline.software: Bluesky 1.10.0, Ophyd 1.7.0, DataBroker 2.0.0b13, Python 3.10.8, 2023-1.0-py310-tiled
# Detector.I0: 10 cm N2
# Detector.I1: 25 cm N2
# Detector.I2: 25 cm N2
# Element.symbol: Fe
# Element.edge: K
# Element.reference: Fe
# Element.reference_material: Fe foil
# Facility.name: NSLS-II
# Facility.energy: 3.0
# Facility.current: 400.6
# Facility.mode: top-off
# Facility.GUP: 123456
# Facility.SAF: 301027
# Facility.cycle: 2023-2
# Mono.name: Si(111)
# Mono.d_spacing: 3.13519
# Mono.encoder_resolution: 0.0000050 deg/ct
# Mono.angle_offset: 16.0754 deg
# Mono.scan_mode: pseudo channel cut
# Mono.scan_type: step
# Mono.direction: forward in energy
# Sample.name: CaFe(2+)2Fe(3+)(Si2O7)OOH
# Sample.prep: PEG pellet
# Sample.x: 142.329 mm
# Sample.y: 114.126 mm
# Sample.SDD_position: 205.000 mm
# Scan.experimenters: Bruce Ravel
# Scan.edge_energy: 7112.0
# Scan.start_time: 2023-05-05T19:26:02
# Scan.end_time: 2023-05-05T19:34:19
# Scan.transient_id: 74586
# Scan.uid: 17d95919-5ff0-4b7b-b6e3-35f2cf83b0e4
# Scan.plot_hint: ln(I0/It)  --  ln($5/$6)
# Column.1: energy eV
# Column.2: requested_energy eV
# Column.3: measurement_time seconds
# Column.4: xmu
# Column.5: I0 nA
# Column.6: It nA
# Column.7: Ir nA
# ///////////
# courtesy Martin Stennett, University of Sheffield
# -----------
# energy  requested_energy  measurement_time  xmu  I0  It  Ir
  6911.999  6912.000  0.500  1.723868  154.477  27.5548  5.176612
  6942.013  6942.000  0.500  1.696400  154.314  28.2923  5.428331
  6972.026  6972.000  0.500  1.668969  154.267  29.0703  5.695326
  7002.011  7002.000  0.500  1.641958  154.147  29.8429  5.965257
  7032.006  7032.000  0.500  1.615243  153.958  30.6135  6.240222
  7062.004  7062.000  0.500  1.590271  153.062  31.2047  6.473725
  7083.978  7084.000  0.500  1.573082  153.328  31.8009  6.656664
  7089.992  7090.000  0.500  1.569483  153.408  31.9322  6.686778
  7096.150  7096.000  0.500  1.566179  153.329  32.0215  6.690131
  7101.999  7102.000  0.500  1.564517  153.275  32.0634  6.641033
  7102.884  7102.900  0.500  1.564823  153.244  32.0471  6.621401
  7103.785  7103.800  0.500  1.564549  153.191  32.0448  6.600292
  7104.688  7104.700  0.500  1.564685  153.195  32.0413  6.572485
  7105.584  7105.600  0.500  1.564986  153.204  32.0335  6.535190
  7106.490  7106.500  0.500  1.565629  153.161  32.004  6.484074
  7107.385  7107.400  0.500  1.566903  153.138  31.9583  6.413374
  7108.289  7108.300  0.500  1.567707  153.089  31.9224  6.310269
  7109.188  7109.200  0.500  1.569399  153.075  31.8657  6.143067
  7110.093  7110.100  0.500  1.572355  153.026  31.7615  5.790145
  7110.993  7111.000  0.500  1.580460  152.975  31.4946  4.872279
  7111.889  7111.900  0.500  1.593709  152.877  31.0602  3.486743
  7112.798  7112.800  0.500  1.600943  152.794  30.8195  2.694018
  7113.695  7113.700  0.500  1.605652  152.735  30.6628  2.288027
  7114.598  7114.600  0.500  1.609239  152.704  30.5468  2.004830
  7115.500  7115.500  0.500  1.614998  152.667  30.3642  1.861176
  7116.393  7116.400  0.500  1.628654  152.658  29.9505  1.779407
  7117.299  7117.300  0.500  1.658588  152.604  29.0569  1.615261
  7118.201  7118.200  0.500  1.720197  152.543  27.3099  1.287244
  7119.104  7119.100  0.500  1.827467  152.509  24.5266  0.918438
  7120.000  7120.000  0.500  1.969549  152.458  21.2709  0.625915
  7120.896  7120.900  0.500  2.096782  152.419  18.7248  0.422747
  7121.803  7121.800  0.500  2.190777  152.367  17.0392  0.306074
  7122.700  7122.700  0.500  2.291815  152.309  15.3959  0.231864
  7123.602  7123.600  0.500  2.417351  152.261  13.5752  0.178483
  7124.499  7124.500  0.500  2.529569  152.191  12.1286  0.143087
  7125.397  7125.400  0.500  2.590318  152.634  11.4469  0.122341
  7126.303  7126.300  0.500  2.604003  152.523  11.2832  0.110165
  7127.203  7127.200  0.500  2.611232  152.457  11.197  0.098163
  7128.099  7128.100  0.500  2.632924  152.393  10.9522  0.084631
  7128.998  7129.000  0.500  2.667902  152.35  10.5728  0.070481
  7129.903  7129.900  0.500  2.701925  152.235  10.2114  0.058888
  7130.804  7130.800  0.500  2.704889  152.136  10.1745  0.053731
  7131.704  7131.700  0.500  2.676698  152.056  10.4599  0.056100
  7132.594  7132.600  0.500  2.641645  152.014  10.8301  0.064219
  7133.501  7133.500  0.500  2.605768  152.001  11.2247  0.075433
  7134.407  7134.400  0.500  2.572016  151.999  11.6099  0.087570
  7135.301  7135.300  0.500  2.543994  151.985  11.9387  0.097459
  7136.201  7136.200  0.500  2.525250  151.947  12.1616  0.103665
  7136.996  7137.000  0.500  2.512700  151.956  12.3159  0.106166
  7140.021  7140.010  0.500  2.478876  151.938  12.7381  0.098401
  7143.184  7143.200  0.500  2.467281  151.881  12.8818  0.096867
  7146.554  7146.560  0.500  2.427488  151.885  13.4051  0.098478
  7150.080  7150.080  0.500  2.364332  151.854  14.2761  0.087523
  7153.786  7153.780  0.500  2.337646  151.841  14.6609  0.084532
  7157.652  7157.650  0.500  2.340401  151.798  14.6164  0.087942
  7161.701  7161.700  0.500  2.358943  151.707  14.3394  0.087601
  7165.911  7165.910  0.500  2.401854  151.563  13.724  0.088561
  7170.294  7170.290  0.500  2.448697  151.484  13.0891  0.088078
  7174.849  7174.850  0.500  2.465728  151.389  12.86  0.098085
  7179.587  7179.580  0.500  2.453155  151.339  13.0185  0.114500
  7184.490  7184.480  0.500  2.436121  151.243  13.2337  0.113900
  7189.552  7189.550  0.500  2.413924  151.151  13.5225  0.100531
  7194.796  7194.790  0.500  2.395951  150.955  13.7499  0.089266
  7200.219  7200.210  0.500  2.391184  150.861  13.807  0.102777
  7205.799  7205.790  0.500  2.389510  150.711  13.8164  0.128717
  7211.560  7211.550  0.500  2.378231  150.587  13.9616  0.117215
  7217.494  7217.480  0.500  2.366783  150.445  14.109  0.072028
  7223.595  7223.580  0.500  2.360503  150.245  14.179  0.068562
  7229.862  7229.850  0.500  2.352644  150.299  14.296  0.104540
  7236.299  7236.290  0.500  2.346656  150.131  14.3659  0.147032
  7242.910  7242.900  0.500  2.350558  150.018  14.2991  0.145079
  7249.701  7249.690  0.500  2.356356  149.777  14.1936  0.128170
  7256.662  7256.650  0.500  2.358116  149.767  14.1677  0.135746
  7263.789  7263.770  0.500  2.347700  138.327  13.2225  0.118845
  7271.085  7271.070  0.500  2.330792  149.888  14.5719  0.118784
  7278.562  7278.550  0.500  2.319748  149.846  14.7296  0.108171
  7286.200  7286.190  0.500  2.314048  149.43  14.7727  0.097826
  7294.014  7294.000  0.500  2.306226  149.47  14.8927  0.109507
  7302.001  7301.990  0.500  2.294134  147.53  14.8782  0.142353
  7310.161  7310.150  0.500  2.285739  149.535  15.2075  0.161256
  7318.481  7318.470  0.500  2.281585  149.477  15.2649  0.162297
  7326.987  7326.970  0.500  2.273575  149.3  15.3695  0.164980
  7335.663  7335.650  0.500  2.262008  149.105  15.5279  0.174511
  7344.500  7344.490  0.500  2.253114  148.867  15.6417  0.170085
  7353.517  7353.500  0.500  2.247814  148.685  15.7055  0.145746
  7362.698  7362.690  0.500  2.240865  148.473  15.7926  0.131557
  7372.063  7372.050  0.500  2.231261  148.272  15.9234  0.138427
  7381.586  7381.570  0.500  2.222031  148.027  16.0445  0.183198
  7391.284  7391.270  0.500  2.213024  147.783  16.163  0.202980
  7401.160  7401.150  0.500  2.201835  147.543  16.3183  0.198463
  7411.198  7411.190  0.500  2.189832  147.286  16.4865  0.200693
  7421.404  7421.400  0.500  2.181269  146.977  16.5934  0.205031
  7431.802  7431.790  0.500  2.172865  146.672  16.6987  0.214364
  7442.364  7442.350  0.500  2.163710  146.318  16.8117  0.205586
  7453.095  7453.080  0.500  2.153322  144.941  16.8274  0.194123
  7463.988  7463.980  0.500  2.142940  145.765  17.0996  0.201724
  7475.060  7475.050  0.500  2.133696  145.592  17.238  0.222717
  7486.308  7486.290  0.500  2.124063  145.188  17.3565  0.241026
  7497.731  7497.710  0.500  2.114832  144.832  17.4745  0.256065
  7509.312  7509.290  0.500  2.104916  144.446  17.6016  0.255268
  7521.040  7521.050  0.500  2.094066  144.088  17.7495  0.262077
  7532.997  7532.980  0.500  2.084233  143.638  17.8689  0.264081
  7545.098  7545.080  0.500  2.073683  143.246  18.0091  0.271328
  7557.380  7557.350  0.500  2.063089  142.817  18.1465  0.272640
  7569.799  7569.790  0.500  2.052172  142.333  18.2834  0.273856
  7582.395  7582.410  0.500  2.041133  141.891  18.429  0.294018
  7595.177  7595.190  0.500  2.031129  141.312  18.5384  0.306808
  7608.135  7608.150  0.500  2.020784  140.259  18.5915  0.313298
  7621.297  7621.280  0.500  2.010710  140.059  18.753  0.323753
  7634.566  7634.580  0.500  1.999254  139.787  18.9322  0.331547
  7648.055  7648.050  0.500  1.988480  139.293  19.0697  0.346803
  7661.691  7661.700  0.500  1.977861  138.792  19.204  0.354965
  7675.496  7675.510  0.500  1.967036  138.22  19.333  0.357097
  7689.488  7689.500  0.500  1.955899  137.853  19.4976  0.364471
  7703.647  7703.660  0.500  1.944649  137.105  19.6111  0.378079
  7717.975  7717.990  0.500  1.933532  136.538  19.7483  0.393259
  7732.475  7732.490  0.500  1.921929  135.93  19.8899  0.405358
  7747.134  7747.160  0.500  1.910593  135.418  20.0408  0.416574
  7762.005  7762.000  0.500  1.899546  134.818  20.1737  0.428136
  7777.011  7777.020  0.500  1.888245  134.168  20.3045  0.443351
  7792.221  7792.200  0.500  1.877160  133.555  20.4371  0.456259
  7807.569  7807.560  0.500  1.865772  132.964  20.5798  0.466552
  7823.105  7823.090  0.500  1.854458  132.278  20.7065  0.477587
  7838.775  7838.790  0.500  1.843084  131.399  20.8042  0.488568
  7854.651  7854.660  0.500  1.831776  130.164  20.843  0.500146
  7870.693  7870.710  0.500  1.820140  130.316  21.1116  0.519678
  7886.902  7886.920  0.500  1.809032  130.085  21.3096  0.537780
  7903.281  7903.310  0.500  1.797569  129.403  21.4422  0.554357
  7919.852  7919.870  0.500  1.786157  128.695  21.5697  0.569555
  7936.580  7936.600  0.500  1.775006  127.681  21.6398  0.583228
  7953.477  7953.500  0.500  1.763801  127.071  21.779  0.597389
  7964.832  7964.860  0.500  1.756098  126.52  21.8522  0.607146