File: xdidata/Data/Fe/Fe-K-Bustamite.xdi
# XDI/1.0 BlueSky/1.5.3
# Beamline.name: 6BM
# Beamline.xray_source: NSLS-II three-pole wiggler
# Beamline.collimation: paraboloid mirror, 5 nm Rh on 30 nm Pt
# Beamline.focusing: not in use
# Beamline.harmonic_rejection: flat mirror, Si stripe, pitch = 7.0 mrad relative to beam
# Detector.i0: 10 cm N2
# Detector.i1: 25 cm N2
# Detector.i2: 25 cm N2
# Element.symbol: Fe
# Element.edge: K
# Facility.name: NSLS-II
# Facility.energy: 3.0
# Facility.current: 400.4
# Facility.mode: top-off
# Facility.gup: 301027
# Facility.saf: 304793
# Facility.cycle: 2020-1
# Mono.name: Si(111)
# Mono.d_spacing: 3.13532
# Mono.encoder_resolution: 0.0000050 deg/ct
# Mono.angle_offset: 16.0581 deg
# Mono.scan_mode: fixed exit
# Mono.scan_type: step
# Mono.direction: forward in energy
# Sample.name: CaMnSi2O6
# Sample.prep: Powder in polyethylene glycol pellet
# Sample.x_position: -122.297 mm
# Sample.y_position: 119.848 mm
# Scan.experimenters: Bruce Ravel
# Scan.edge_energy: 7112.0
# Scan.start_time: 2020-01-14T21:38:46
# Scan.end_time: 2020-01-15T07:16:50
# Scan.transient_id: 19543
# Scan.uid: 09327789-7958-44d7-90ed-12e4cb02125b
# Scan.plot_hint: ln(I0/It)  --  ln($5/$6)
# Scan.sequence: merge of 4 scans
# Column.1: energy eV
# Column.2: requested_energy eV
# Column.3: measurement_time seconds
# Column.4: mutrans
# Column.5: i0
# Column.6: itrans
# Column.7: irefer
# /////
#  Broken Hill, NSW, Australia
# -----
# energy   requested_energy   measurement_time   mutrans   i0   itrans   irefer
6911.99 6912 0.500000 2.743674 71.5789 4.605112 1.269977
6952.02 6952 0.500000 2.694275 70.8712 4.790384 1.345966
6992.01 6992 0.500000 2.645678 70.2488 4.984718 1.424048
7032.01 7032 0.500000 2.597184 69.6481 5.187655 1.504515
7072.01 7072 0.500000 2.549833 69.0389 5.391559 1.583405
7088 7088 0.500000 2.531339 68.8341 5.475949 1.608577
7096.01 7096 0.500000 2.522164 68.7359 5.518546 1.613648
7102.08 7102.1 0.500000 2.515613 68.6318 5.546336 1.603923
7102.48 7102.5 0.500000 2.515291 68.6065 5.546110 1.601939
7102.88 7102.9 0.500000 2.514815 68.5741 5.546139 1.599956
7103.28 7103.3 0.500000 2.514521 68.5555 5.546246 1.596894
7103.69 7103.7 0.500000 2.514002 68.5345 5.547427 1.595055
7104.09 7104.1 0.500000 2.513689 68.5202 5.548052 1.591896
7104.49 7104.5 0.500000 2.513368 68.4835 5.546869 1.588309
7104.9 7104.9 0.500000 2.512770 68.478 5.549692 1.585569
7105.3 7105.3 0.500000 2.512417 68.4634 5.550482 1.582251
7105.69 7105.7 0.500000 2.511950 68.4229 5.549772 1.576481
7106.1 7106.1 0.500000 2.511532 68.421 5.551947 1.572224
7106.5 7106.5 0.500000 2.511311 68.3933 5.550948 1.565849
7106.9 7106.9 0.500000 2.510967 68.4075 5.553979 1.559625
7107.3 7107.3 0.500000 2.510416 68.443 5.559919 1.552959
7107.7 7107.7 0.500000 2.510185 68.4169 5.559138 1.543257
7108.1 7108.1 0.500000 2.509629 68.4655 5.566135 1.533006
7108.5 7108.5 0.500000 2.509419 68.5322 5.572747 1.519220
7108.9 7108.9 0.500000 2.508977 68.5577 5.577275 1.499767
7109.3 7109.3 0.500000 2.508741 68.5522 5.578118 1.472895
7109.7 7109.7 0.500000 2.508694 68.5229 5.576072 1.433547
7110.1 7110.1 0.500000 2.508332 68.4824 5.574732 1.372625
7110.5 7110.5 0.500000 2.508602 68.4706 5.572274 1.272971
7110.89 7110.9 0.500000 2.508845 68.43 5.567602 1.131890
7111.3 7111.3 0.500000 2.509092 68.4107 5.564656 0.971250
7111.69 7111.7 0.500000 2.509203 68.3836 5.561847 0.843947
7112.1 7112.1 0.500000 2.508777 68.3325 5.560044 0.749231
7112.5 7112.5 0.500000 2.508289 68.3053 5.560583 0.685917
7112.9 7112.9 0.500000 2.507817 68.2667 5.560081 0.635653
7113.3 7113.3 0.500000 2.507463 68.2248 5.558605 0.595296
7113.7 7113.7 0.500000 2.506934 68.1675 5.556820 0.559461
7114.1 7114.1 0.500000 2.506468 68.1547 5.558414 0.530160
7114.5 7114.5 0.500000 2.505978 68.131 5.559172 0.507376
7114.9 7114.9 0.500000 2.505905 68.1163 5.558400 0.490863
7115.3 7115.3 0.500000 2.506179 68.0944 5.555125 0.480649
7115.7 7115.7 0.500000 2.506272 68.1248 5.557044 0.474174
7116.1 7116.1 0.500000 2.506989 68.0863 5.549863 0.467293
7116.49 7116.5 0.500000 2.508250 68.0658 5.541327 0.458379
7116.9 7116.9 0.500000 2.510237 68.0434 5.528510 0.441601
7117.31 7117.3 0.500000 2.513396 68.0102 5.508016 0.415736
7117.7 7117.7 0.500000 2.518354 67.9857 5.479065 0.383103
7118.1 7118.1 0.500000 2.525155 67.9624 5.440264 0.347964
7118.5 7118.5 0.500000 2.533657 67.9387 5.392358 0.312347
7118.9 7118.9 0.500000 2.543384 67.8992 5.336941 0.279060
7119.3 7119.3 0.500000 2.554207 67.8418 5.275981 0.247908
7119.7 7119.7 0.500000 2.565384 67.7954 5.212880 0.218432
7120.1 7120.1 0.500000 2.576901 67.8067 5.154108 0.192984
7120.5 7120.5 0.500000 2.588246 67.7273 5.090055 0.170210
7120.9 7120.9 0.500000 2.599219 67.6666 5.029856 0.150834
7121.3 7121.3 0.500000 2.608466 67.6553 4.982780 0.135877
7121.7 7121.7 0.500000 2.616557 67.6376 4.941374 0.122960
7122.1 7122.1 0.500000 2.623798 67.6091 4.903436 0.113496
7122.5 7122.5 0.500000 2.631305 67.4809 4.857693 0.105540
7122.9 7122.9 0.500000 2.641189 67.3456 4.800518 0.098225
7123.31 7123.3 0.500000 2.654497 67.2051 4.725960 0.090940
7123.7 7123.7 0.500000 2.671208 67.0585 4.638219 0.085165
7124.1 7124.1 0.500000 2.690911 66.9176 4.538624 0.079788
7124.5 7124.5 0.500000 2.710589 66.8057 4.442514 0.074438
7124.9 7124.9 0.500000 2.727544 66.6697 4.358988 0.070376
7125.3 7125.3 0.500000 2.739515 66.5646 4.300361 0.066773
7125.7 7125.7 0.500000 2.745241 66.4292 4.267013 0.063156
7126.1 7126.1 0.500000 2.746217 66.2743 4.252844 0.060307
7126.5 7126.5 0.500000 2.742678 66.1448 4.259734 0.058559
7126.9 7126.9 0.500000 2.735843 65.983 4.277930 0.056001
7127.3 7127.3 0.500000 2.726996 65.8441 4.306557 0.053388
7127.71 7127.7 0.500000 2.717059 65.6999 4.341255 0.051215
7128.11 7128.1 0.500000 2.707696 65.5895 4.374404 0.048252
7128.51 7128.5 0.500000 2.698066 65.4876 4.410116 0.045549
7128.9 7128.9 0.500000 2.687271 65.3789 4.450374 0.043596
7129.3 7129.3 0.500000 2.675206 65.303 4.499396 0.041143
7129.7 7129.7 0.500000 2.663848 65.1688 4.540820 0.038863
7130.1 7130.1 0.500000 2.653877 65.037 4.577626 0.037743
7130.5 7130.5 0.500000 2.646006 64.8957 4.603589 0.036818
7130.91 7130.9 0.500000 2.639997 64.7673 4.622234 0.037061
7131.31 7131.3 0.500000 2.635539 64.6179 4.632063 0.037296
7131.71 7131.7 0.500000 2.631740 64.5165 4.642270 0.038685
7132.1 7132.1 0.500000 2.628453 64.4795 4.654784 0.040540
7132.5 7132.5 0.500000 2.625818 64.4572 4.665456 0.042705
7132.9 7132.9 0.500000 2.623465 64.5309 4.681807 0.045702
7133.3 7133.3 0.500000 2.620775 64.5661 4.696841 0.047652
7133.69 7133.7 0.500000 2.618296 64.5852 4.709873 0.051041
7134.1 7134.1 0.500000 2.615864 64.6706 4.727649 0.052985
7134.5 7134.5 0.500000 2.613494 64.8372 4.751029 0.055674
7134.9 7134.9 0.500000 2.611056 64.9524 4.771140 0.057781
7135.3 7135.3 0.500000 2.609411 65.031 4.784846 0.058940
7135.7 7135.7 0.500000 2.608522 65.103 4.794409 0.060234
7136.1 7136.1 0.500000 2.607754 65.168 4.802884 0.061428
7136.5 7136.5 0.500000 2.607740 65.2383 4.808097 0.061542
7136.9 7136.9 0.500000 2.608245 65.2957 4.809927 0.061366
7137.3 7137.3 0.500000 2.608805 65.3301 4.809726 0.061483
7137.7 7137.7 0.500000 2.609897 65.3783 4.808032 0.060624
7138.1 7138.1 0.500000 2.610826 65.4022 4.805382 0.059836
7138.5 7138.5 0.500000 2.611859 65.4198 4.801640 0.058595
7138.9 7138.9 0.500000 2.613207 65.469 4.798840 0.057357
7139.3 7139.3 0.500000 2.614273 65.4559 4.792796 0.056120
7139.7 7139.7 0.500000 2.614967 65.478 4.791034 0.055236
7140.1 7140.1 0.500000 2.615517 65.4865 4.789034 0.054240
7140.5 7140.5 0.500000 2.615279 65.5114 4.791965 0.053680
7140.9 7140.9 0.500000 2.614140 65.5152 4.797690 0.053303
7141.3 7141.3 0.500000 2.612513 65.5499 4.808020 0.053366
7141.7 7141.7 0.500000 2.610262 65.5368 4.817891 0.052924
7143.09 7143.08 0.710000 2.600423 93.1241 6.913579 0.078230
7147.58 7147.58 0.760000 2.575754 99.7914 7.593644 0.077666
7152.4 7152.39 0.810000 2.570937 106.597 8.150836 0.071588
7157.52 7157.51 0.860000 2.582603 113.301 8.562918 0.077291
7162.94 7162.93 0.910000 2.594542 119.632 8.934114 0.083292
7168.66 7168.65 0.960000 2.585640 125.854 9.482711 0.093737
7174.69 7174.68 1.010000 2.576732 132.142 10.0456 0.113969
7181.02 7181.01 1.060000 2.571194 138.361 10.5769 0.137276
7187.67 7187.65 1.110000 2.559065 144.63 11.191 0.129235
7194.62 7194.6 1.160000 2.545653 151.051 11.8457 0.114306
7201.85 7201.84 1.210000 2.535436 157.674 12.492 0.146894
7209.41 7209.4 1.260000 2.523873 164.061 13.1492 0.178168
7217.27 7217.26 1.310000 2.517168 170.273 13.7389 0.103675
7225.43 7225.42 1.360000 2.513260 175.928 14.2508 0.115553
7233.91 7233.89 1.410000 2.506181 182.445 14.8836 0.204528
7242.67 7242.66 1.460000 2.495438 188.386 15.5343 0.226661
7251.74 7251.74 1.510000 2.483819 194.193 16.2003 0.212787
7261.12 7261.12 1.560000 2.472477 199.352 16.8203 0.223562
7270.8 7270.8 1.610000 2.461694 206.673 17.6271 0.206948
7280.79 7280.79 1.660000 2.450195 212.072 18.2969 0.188671
7291.09 7291.09 1.710000 2.437864 218.243 19.0629 0.187059
7301.69 7301.69 1.760000 2.426112 220.553 19.4925 0.266021
7312.6 7312.6 1.810000 2.414328 230.628 20.6244 0.309115
7323.81 7323.81 1.860000 2.403665 236.336 21.3613 0.322924
7335.32 7335.32 1.910000 2.391401 241.886 22.1329 0.350261
7347.14 7347.14 1.960000 2.378668 248.086 22.9912 0.333261
7359.27 7359.27 2.010000 2.364377 253.598 23.8404 0.288877
7371.7 7371.7 2.060000 2.350980 259.011 24.6776 0.302390
7384.43 7384.43 2.110000 2.337771 264.504 25.5361 0.435578
7397.47 7397.47 2.160000 2.323831 269.936 26.4263 0.447070
7410.82 7410.82 2.210000 2.310631 275.384 27.3178 0.460390
7424.48 7424.47 2.260000 2.296798 280.672 28.2303 0.490833
7438.42 7438.42 2.310000 2.282384 285.82 29.1654 0.504511
7452.68 7452.68 2.360000 2.268056 291.046 30.1273 0.477809
7467.24 7467.24 2.410000 2.254153 290.78 30.5211 0.505578
7482.12 7482.11 2.460000 2.238646 302.316 32.228 0.594418
7497.28 7497.28 2.510000 2.223782 307.151 33.2336 0.661036
7512.77 7512.76 2.560000 2.209005 312.574 34.3238 0.675751
7528.54 7528.54 2.610000 2.194034 317.231 35.3607 0.705540
7544.63 7544.63 2.660000 2.178799 321.639 36.4025 0.737603
7561.02 7561.02 2.710000 2.163526 325.968 37.46 0.748967
7577.73 7577.72 2.760000 2.147922 330.155 38.5383 0.801957
7594.72 7594.72 2.810000 2.132375 333.672 39.5588 0.871357
7612.04 7612.03 2.860000 2.116418 335.293 40.3905 0.913246
7629.65 7629.64 2.910000 2.100478 340.177 41.6375 0.953487
7647.56 7647.56 2.960000 2.084490 343.529 42.7252 1.022130
7665.78 7665.78 3.010000 2.068434 345.991 43.7277 1.059946
7684.3 7684.3 3.060000 2.051980 348.015 44.7131 1.082904
7703.14 7703.13 3.110000 2.035323 350.709 45.8162 1.147849
7722.28 7722.27 3.160000 2.018733 352.312 46.7954 1.217401
7741.71 7741.71 3.210000 2.001695 354.317 47.8701 1.273208
7761.45 7761.45 3.260000 1.984711 354.279 48.6847 1.325021
7781.5 7781.5 3.310000 1.967462 354.669 49.5861 1.392477
7801.86 7801.86 3.360000 1.950073 354.729 50.4643 1.446683
7822.52 7822.52 3.410000 1.932271 354.237 51.2991 1.494523
7843.48 7843.48 3.460000 1.914612 354.313 52.2242 1.552517
7854.08 7854.08 3.490000 1.905970 351.93 52.3231 1.573442