File: xdidata/Data/Fe/Fe-Scorzalite.xdi
# XDI/1.0 BlueSky/1.10.0 BMM/2023-1.0-py310-tiled
# Beamline.name: BMM (06BM) -- Beamline for Materials Measurement (NIST)
# Beamline.xray_source: NSLS-II three-pole wiggler
# Beamline.collimation: paraboloid mirror, 5 nm Rh on 30 nm Pt
# Beamline.focusing: not in use
# Beamline.harmonic_rejection: flat mirror, Si stripe, pitch = 7.0 mrad relative to beam
# Beamline.software: Bluesky 1.10.0, Ophyd 1.7.0, DataBroker 2.0.0b13, Python 3.10.8, 2023-1.0-py310-tiled
# Detector.I0: 10 cm N2
# Detector.I1: 25 cm N2
# Detector.I2: 25 cm N2
# Element.symbol: Fe
# Element.edge: K
# Element.reference: Fe
# Element.reference_material: Fe foil
# Facility.name: NSLS-II
# Facility.energy: 3.0
# Facility.current: 399.8
# Facility.mode: top-off
# Facility.GUP: 123456
# Facility.SAF: 301027
# Facility.cycle: 2023-2
# Mono.name: Si(111)
# Mono.d_spacing: 3.13519
# Mono.encoder_resolution: 0.0000050 deg/ct
# Mono.angle_offset: 16.0754 deg
# Mono.scan_mode: pseudo channel cut
# Mono.scan_type: step
# Mono.direction: forward in energy
# Sample.name: (Fe,Mg)Al2(OH,PO4)2
# Sample.prep: PEG pellet
# Sample.x: 142.329 mm
# Sample.y: 114.126 mm
# Sample.SDD_position: 205.000 mm
# Scan.experimenters: Bruce Ravel
# Scan.edge_energy: 7112.0
# Scan.start_time: 2023-05-05T21:05:32
# Scan.end_time: 2023-05-05T21:13:43
# Scan.transient_id: 74641
# Scan.uid: e7aacf35-d461-4eba-bad8-bccb82b463f0
# Scan.plot_hint: ln(I0/It)  --  ln($5/$6)
# Column.1: energy eV
# Column.2: requested_energy eV
# Column.3: measurement_time seconds
# Column.4: xmu
# Column.5: I0 nA
# Column.6: It nA
# Column.7: Ir nA
# ///////////
# courtesy Martin Stennett, University of Sheffield
# -----------
# energy  requested_energy  measurement_time  xmu  I0  It  Ir
  6911.999  6912.000  0.500  1.473500  154.786  35.465  6.656562
  6942.027  6942.000  0.500  1.445989  154.579  36.4054  6.979397
  6972.012  6972.000  0.500  1.418793  154.557  37.4037  7.321239
  7002.009  7002.000  0.500  1.392307  154.457  38.3828  7.666047
  7032.010  7032.000  0.500  1.366200  154.264  39.3488  8.013938
  7062.010  7062.000  0.500  1.340609  153.337  40.1262  8.317467
  7083.987  7084.000  0.500  1.322071  153.555  40.9351  8.561532
  7089.990  7090.000  0.500  1.317427  153.69  41.1618  8.612714
  7095.986  7096.000  0.500  1.312522  153.642  41.3513  8.632753
  7102.003  7102.000  0.500  1.308192  154.044  41.6395  8.617677
  7102.884  7102.900  0.500  1.307072  154.028  41.6816  8.605964
  7103.785  7103.800  0.500  1.306363  154.006  41.7052  8.581941
  7104.690  7104.700  0.500  1.306057  154.003  41.7172  8.548828
  7105.589  7105.600  0.500  1.305258  153.984  41.7454  8.510447
  7106.492  7106.500  0.500  1.304701  153.949  41.7592  8.453178
  7107.385  7107.400  0.500  1.303964  153.936  41.7864  8.378893
  7108.287  7108.300  0.500  1.303336  153.908  41.8052  8.257277
  7109.195  7109.200  0.500  1.303155  153.868  41.8018  8.050148
  7110.091  7110.100  0.500  1.302804  153.806  41.7996  7.614934
  7110.995  7111.000  0.500  1.302866  153.74  41.7791  6.453647
  7111.893  7111.900  0.500  1.303079  153.658  41.7481  4.670217
  7112.788  7112.800  0.500  1.302602  153.551  41.7388  3.650153
  7113.701  7113.700  0.500  1.302604  153.51  41.7276  3.107798
  7114.596  7114.600  0.500  1.302034  153.476  41.7421  2.736322
  7115.498  7115.500  0.500  1.301421  153.422  41.753  2.553794
  7116.391  7116.400  0.500  1.301318  153.411  41.7543  2.475722
  7117.295  7117.300  0.500  1.302986  153.372  41.6741  2.312641
  7118.203  7118.200  0.500  1.306128  153.332  41.5326  1.947588
  7119.099  7119.100  0.500  1.314247  153.262  41.1778  1.535734
  7120.000  7120.000  0.500  1.334647  153.227  40.3373  1.179922
  7120.898  7120.900  0.500  1.372869  153.188  38.8146  0.872670
  7121.799  7121.800  0.500  1.407802  153.14  37.4704  0.670531
  7122.705  7122.700  0.500  1.428267  153.09  36.6993  0.550107
  7123.602  7123.600  0.500  1.442959  153.048  36.1542  0.472368
  7124.493  7124.500  0.500  1.456161  153.001  35.6691  0.418466
  7125.401  7125.400  0.500  1.455963  152.934  35.6605  0.378911
  7126.299  7126.300  0.500  1.456379  152.871  35.6311  0.345626
  7127.201  7127.200  0.500  1.469127  152.82  35.168  0.306748
  7128.102  7128.100  0.500  1.477531  152.762  34.8604  0.267450
  7128.994  7129.000  0.500  1.476545  152.679  34.8757  0.230657
  7129.903  7129.900  0.500  1.479887  152.603  34.742  0.198735
  7130.800  7130.800  0.500  1.479330  152.518  34.742  0.182136
  7131.704  7131.700  0.500  1.471256  152.44  35.0058  0.185806
  7132.599  7132.600  0.500  1.465640  152.407  35.1953  0.206217
  7133.494  7133.500  0.500  1.466258  152.39  35.1696  0.234462
  7134.400  7134.400  0.500  1.464552  152.37  35.2252  0.263771
  7135.301  7135.300  0.500  1.458826  152.371  35.4275  0.287173
  7136.203  7136.200  0.500  1.453816  152.357  35.6024  0.301777
  7136.996  7137.000  0.500  1.449690  152.332  35.7437  0.306355
  7140.028  7140.010  0.500  1.432649  152.33  36.3574  0.278707
  7143.188  7143.200  0.500  1.407254  152.274  37.2788  0.278673
  7146.561  7146.560  0.500  1.390575  152.259  37.9022  0.276757
  7150.087  7150.080  0.500  1.381588  152.701  38.3553  0.233541
  7153.792  7153.780  0.500  1.374465  152.675  38.6228  0.221264
  7157.656  7157.650  0.500  1.376729  152.628  38.5239  0.230138
  7161.707  7161.700  0.500  1.389044  152.53  38.0277  0.230793
  7165.911  7165.910  0.500  1.391997  152.425  37.8896  0.243085
  7170.294  7170.290  0.500  1.395000  152.336  37.7538  0.252455
  7174.858  7174.850  0.500  1.398634  152.222  37.5887  0.284962
  7179.592  7179.580  0.500  1.393579  152.145  37.7602  0.329956
  7184.494  7184.480  0.500  1.386543  152.053  38.0038  0.325678
  7189.552  7189.550  0.500  1.377060  151.948  38.3394  0.283743
  7194.803  7194.790  0.500  1.369663  151.757  38.5756  0.248955
  7200.224  7200.210  0.500  1.362438  151.655  38.8292  0.287133
  7205.792  7205.790  0.500  1.355902  151.519  39.0486  0.361817
  7211.562  7211.550  0.500  1.350839  151.341  39.2007  0.327643
  7217.489  7217.480  0.500  1.347546  151.21  39.2961  0.199285
  7223.590  7223.580  0.500  1.344013  151.023  39.3862  0.189270
  7229.856  7229.850  0.500  1.338069  151.05  39.6282  0.287774
  7236.305  7236.290  0.500  1.331716  150.877  39.8353  0.405294
  7242.914  7242.900  0.500  1.327593  150.787  39.9759  0.403878
  7249.696  7249.690  0.500  1.325025  150.533  40.011  0.358721
  7256.666  7256.650  0.500  1.321613  150.495  40.1377  0.382867
  7263.782  7263.770  0.500  1.315527  139.332  37.3874  0.334229
  7271.085  7271.070  0.500  1.308992  150.62  40.6814  0.329993
  7278.564  7278.550  0.500  1.300925  150.593  41.0034  0.299305
  7286.200  7286.190  0.500  1.292956  150.149  41.2097  0.271464
  7294.016  7294.000  0.500  1.286487  150.181  41.4858  0.303286
  7302.003  7301.990  0.500  1.279510  148.288  41.2498  0.393480
  7310.163  7310.150  0.500  1.272255  149.972  42.0219  0.443696
  7318.481  7318.470  0.500  1.265894  149.778  42.2356  0.446949
  7326.983  7326.970  0.500  1.259979  149.594  42.434  0.453447
  7335.661  7335.650  0.500  1.254421  149.415  42.6192  0.477238
  7344.502  7344.490  0.500  1.247944  149.191  42.8319  0.463717
  7353.517  7353.500  0.500  1.240363  148.967  43.0929  0.397950
  7362.703  7362.690  0.500  1.232547  148.78  43.3767  0.359908
  7372.067  7372.050  0.500  1.225287  148.547  43.6243  0.377940
  7381.584  7381.570  0.500  1.217246  148.318  43.9087  0.499710
  7391.279  7391.270  0.500  1.209934  148.072  44.1575  0.552504
  7401.160  7401.150  0.500  1.201898  147.815  44.4365  0.538515
  7411.205  7411.190  0.500  1.194158  147.537  44.6976  0.542499
  7421.404  7421.400  0.500  1.186442  147.266  44.9611  0.553482
  7431.798  7431.790  0.500  1.178877  146.977  45.2138  0.577932
  7442.368  7442.350  0.500  1.170972  146.611  45.4589  0.553486
  7453.086  7453.080  0.500  1.163277  145.185  45.3645  0.520856
  7463.992  7463.980  0.500  1.155412  146.112  46.0147  0.540958
  7475.060  7475.050  0.500  1.147078  145.91  46.3356  0.596602
  7486.303  7486.290  0.500  1.138677  145.5  46.5952  0.645130
  7497.727  7497.710  0.500  1.130384  145.175  46.8783  0.685086
  7509.307  7509.290  0.500  1.122030  145.144  47.2613  0.683070
  7521.078  7521.050  0.500  1.113619  144.828  47.5568  0.700083
  7532.997  7532.980  0.500  1.105353  144.438  47.8227  0.704981
  7545.098  7545.080  0.500  1.096765  144.003  48.0899  0.721819
  7557.370  7557.350  0.500  1.088029  143.603  48.3771  0.724370
  7569.828  7569.790  0.500  1.079325  143.153  48.647  0.726864
  7582.434  7582.410  0.500  1.070714  142.671  48.9025  0.778356
  7595.212  7595.190  0.500  1.062068  142.088  49.1254  0.810366
  7608.172  7608.150  0.500  1.053443  141.057  49.1916  0.826003
  7621.294  7621.280  0.500  1.044624  140.898  49.5712  0.853375
  7634.598  7634.580  0.500  1.035667  140.678  49.9392  0.871524
  7648.077  7648.050  0.500  1.026530  140.165  50.214  0.910235
  7661.696  7661.700  0.500  1.017472  139.642  50.4818  0.930191
  7675.536  7675.510  0.500  1.008403  139.095  50.7422  0.935009
  7689.521  7689.500  0.500  0.999152  138.772  51.0948  0.952696
  7703.678  7703.660  0.500  0.990142  138.018  51.2768  0.985633
  7717.962  7717.990  0.500  0.981110  137.422  51.5187  1.022656
  7732.508  7732.490  0.500  0.971945  136.88  51.7879  1.052623
  7747.178  7747.160  0.500  0.962670  136.388  52.0826  1.079749
  7762.008  7762.000  0.500  0.953380  135.747  52.3216  1.107483
  7777.034  7777.020  0.500  0.944136  135.11  52.56  1.144609
  7792.182  7792.200  0.500  0.934687  134.516  52.8255  1.175650
  7807.551  7807.560  0.500  0.925286  133.892  53.0772  1.199776
  7823.089  7823.090  0.500  0.915720  133.265  53.3365  1.226314
  7838.773  7838.790  0.500  0.906514  132.325  53.4499  1.251896
  7854.685  7854.660  0.500  0.897077  131.048  53.4362  1.279044
  7870.701  7870.710  0.500  0.887499  131.306  54.0567  1.327472
  7886.923  7886.920  0.500  0.878027  130.618  54.2853  1.366417
  7903.292  7903.310  0.500  0.868540  129.868  54.4881  1.403956
  7919.846  7919.870  0.500  0.858971  129.148  54.7068  1.441307
  7936.602  7936.600  0.500  0.849623  128.159  54.7975  1.473189
  7953.474  7953.500  0.500  0.840040  127.486  55.0349  1.505505
  7964.837  7964.860  0.500  0.833773  126.917  55.1337  1.528582