File: xdidata/Bi/Bi-L1-BismuthOxide.xdi
# XDI/1.0 BlueSky/1.10.0 BMM/2023-1.0-py310-tiled
# Beamline.name: BMM (06BM) -- Beamline for Materials Measurement (NIST)
# Beamline.xray_source: NSLS-II three-pole wiggler
# Beamline.collimation: paraboloid mirror, 5 nm Rh on 30 nm Pt
# Beamline.focusing: not in use
# Beamline.harmonic_rejection: flat mirror, Pt stripe, pitch = 7.0 mrad relative to beam
# Beamline.software: Bluesky 1.10.0, Ophyd 1.7.0, DataBroker 2.0.0b13, Python 3.10.8, 2023-1.0-py310-tiled
# Detector.I0: 10 cm N2
# Detector.I1: 25 cm N2
# Detector.I2: 25 cm N2
# Element.symbol: Bi
# Element.edge: L1
# Element.reference: Bi
# Element.reference_material: BiO2
# Facility.name: NSLS-II
# Facility.energy: 3.0
# Facility.current: 400.0
# Facility.mode: top-off
# Facility.GUP: 301027
# Facility.SAF: 310583
# Facility.cycle: 2023-2
# Mono.name: Si(111)
# Mono.d_spacing: 3.13519
# Mono.encoder_resolution: 0.0000050 deg/ct
# Mono.angle_offset: 16.0754 deg
# Mono.scan_mode: pseudo channel cut
# Mono.scan_type: step
# Mono.direction: forward in energy
# Sample.name: BiO2
# Sample.prep: powder on tape
# Sample.x: 109.138 mm
# Sample.y: 153.150 mm
# Sample.SDD_position: 205.000 mm
# Scan.experimenters: Bruce Ravel
# Scan.edge_energy: 16387.5
# Scan.start_time: 2023-05-28T21:57:21
# Scan.end_time: 2023-05-28T22:04:50
# Scan.transient_id: 79050
# Scan.uid: 769aea48-b841-4f16-827e-38f6690f3f51
# Scan.plot_hint: ln(It/Ir)  --  ln($6/$7)
# Column.1: energy eV
# Column.2: requested_energy eV
# Column.3: measurement_time seconds
# Column.4: xmu
# Column.5: I0 nA
# Column.6: It nA
# Column.7: Ir nA
# ///////////
# Welcome to BMM
# -----------
# energy  requested_energy  measurement_time  xmu  I0  It  Ir
  16187.472  16187.500  0.500  0.986366  20.2006  37.2149  13.8785
  16217.543  16217.500  0.500  0.982544  20.0839  37.0094  13.8547
  16247.519  16247.500  0.500  0.978667  19.9547  36.7807  13.8226
  16277.526  16277.500  0.500  0.975202  19.8296  36.5697  13.791
  16307.411  16307.500  0.500  0.971961  19.6459  36.24  13.711
  16337.454  16337.500  0.500  0.970146  19.5712  36.1098  13.6866
  16359.397  16359.500  0.500  0.972100  19.4778  35.9443  13.5973
  16365.403  16365.500  0.500  0.974730  19.4531  35.9015  13.5454
  16371.436  16371.500  0.500  0.979270  19.3765  35.7616  13.4315
  16377.415  16377.500  0.500  0.989081  19.399  35.8074  13.3174
  16378.296  16378.400  0.500  0.991451  19.3752  35.7636  13.2697
  16379.213  16379.300  0.500  0.994105  19.3862  35.7806  13.2408
  16380.130  16380.200  0.500  0.997421  19.3748  35.7614  13.1899
  16381.023  16381.100  0.500  1.000968  19.3645  35.7415  13.1358
  16381.940  16382.000  0.500  1.005615  19.3575  35.731  13.0711
  16382.834  16382.900  0.500  1.010597  19.3571  35.7304  13.0059
  16383.751  16383.800  0.500  1.017505  19.3466  35.7116  12.9096
  16384.657  16384.700  0.500  1.024414  19.3446  35.7106  12.8203
  16385.574  16385.600  0.500  1.033025  19.3407  35.7021  12.7074
  16386.468  16386.500  0.500  1.042773  19.324  35.6766  12.5752
  16387.386  16387.400  0.500  1.053559  19.397  35.8052  12.4851
  16388.304  16388.300  0.500  1.065543  19.3932  35.797  12.3335
  16389.198  16389.200  0.500  1.077757  19.3805  35.7807  12.1783
  16390.128  16390.100  0.500  1.089852  19.3961  35.8045  12.0398
  16390.999  16391.000  0.500  1.100020  19.368  35.7535  11.9011
  16391.917  16391.900  0.500  1.108678  19.3612  35.7474  11.7964
  16392.788  16392.800  0.500  1.114099  19.3594  35.7424  11.731
  16393.695  16393.700  0.500  1.116094  19.3562  35.7349  11.7052
  16394.601  16394.600  0.500  1.115390  19.3552  35.7289  11.7115
  16395.496  16395.500  0.500  1.112394  19.3425  35.7156  11.7422
  16396.415  16396.400  0.500  1.107674  19.3267  35.6871  11.7884
  16397.287  16397.300  0.500  1.102002  19.3328  35.6919  11.857
  16398.229  16398.200  0.500  1.096799  19.3283  35.6908  11.9185
  16399.077  16399.100  0.500  1.091451  19.328  35.6843  11.9803
  16399.997  16400.000  0.500  1.086977  19.3272  35.6827  12.0334
  16400.880  16400.900  0.500  1.083034  19.3025  35.6393  12.0663
  16401.788  16401.800  0.500  1.079937  19.3032  35.6434  12.1051
  16402.660  16402.700  0.500  1.077181  19.2724  35.5828  12.1179
  16403.568  16403.600  0.500  1.075185  19.27  35.581  12.1415
  16404.487  16404.500  0.500  1.073085  19.2693  35.5738  12.1645
  16405.360  16405.400  0.500  1.071609  19.2818  35.6035  12.1927
  16406.303  16406.300  0.500  1.070402  19.2753  35.5918  12.2034
  16407.188  16407.200  0.500  1.069232  19.2732  35.5844  12.2151
  16408.120  16408.100  0.500  1.068064  19.2676  35.5758  12.2264
  16408.969  16409.000  0.500  1.066950  19.2591  35.5563  12.2334
  16409.913  16409.900  0.500  1.066046  19.2593  35.5563  12.2444
  16410.798  16410.800  0.500  1.065188  19.2544  35.5518  12.2534
  16411.718  16411.700  0.500  1.064378  19.2518  35.5501  12.2627
  16412.497  16412.500  0.500  1.063474  19.2462  35.5384  12.2698
  16415.542  16415.510  0.500  1.061733  19.2228  35.4958  12.2764
  16418.683  16418.700  0.500  1.061867  19.2131  35.4733  12.267
  16422.050  16422.060  0.500  1.064087  19.1945  35.4447  12.2299
  16425.572  16425.580  0.500  1.066536  19.1806  35.4234  12.1927
  16429.296  16429.280  0.500  1.068485  19.1675  35.399  12.1606
  16433.176  16433.150  0.500  1.069003  19.1465  35.3647  12.1425
  16437.188  16437.200  0.500  1.069280  19.1298  35.3362  12.1294
  16441.427  16441.410  0.500  1.069009  19.0894  35.2571  12.1055
  16445.799  16445.790  0.500  1.068621  19.061  35.2095  12.0938
  16450.374  16450.350  0.500  1.067645  19.0756  35.2377  12.1153
  16455.094  16455.080  0.500  1.066001  19.0494  35.1873  12.1179
  16459.984  16459.980  0.500  1.063714  19.0144  35.1276  12.125
  16465.102  16465.050  0.500  1.061439  18.9984  35.0984  12.1425
  16470.294  16470.290  0.500  1.060017  19.0003  35.1035  12.1616
  16475.680  16475.710  0.500  1.059227  18.9696  35.0497  12.1526
  16481.331  16481.290  0.500  1.058613  18.9326  34.9822  12.1366
  16487.046  16487.050  0.500  1.058104  18.9128  34.9473  12.1307
  16492.980  16492.980  0.500  1.057889  18.8835  34.8942  12.1148
  16499.096  16499.080  0.500  1.057150  18.8567  34.8442  12.1064
  16505.384  16505.350  0.500  1.056539  18.8239  34.7899  12.095
  16511.809  16511.790  0.500  1.055900  18.8054  34.756  12.0909
  16518.442  16518.400  0.500  1.054873  18.7747  34.7103  12.0874
  16525.223  16525.190  0.500  1.053481  18.7474  34.6549  12.0849
  16532.166  16532.150  0.500  1.052036  18.7144  34.5915  12.0802
  16539.283  16539.270  0.500  1.050590  18.6835  34.541  12.0801
  16546.562  16546.570  0.500  1.049268  18.6345  34.4493  12.064
  16554.063  16554.050  0.500  1.047937  18.6534  34.4936  12.0955
  16561.716  16561.690  0.500  1.046510  18.6255  34.4455  12.0959
  16569.508  16569.500  0.500  1.045077  18.5994  34.3925  12.0946
  16577.500  16577.490  0.500  1.043842  18.582  34.3659  12.1002
  16585.644  16585.650  0.500  1.042930  18.5359  34.2847  12.0826
  16594.002  16593.970  0.500  1.041991  18.4922  34.2033  12.0653
  16602.477  16602.470  0.500  1.041201  18.4708  34.169  12.0627
  16611.166  16611.150  0.500  1.039712  18.4241  34.0852  12.0511
  16619.985  16619.990  0.500  1.038150  18.3898  34.0193  12.0465
  16629.044  16629.000  0.500  1.036557  18.356  33.9609  12.045
  16638.210  16638.190  0.500  1.035206  18.3152  33.8953  12.038
  16647.569  16647.550  0.500  1.033967  18.2788  33.8298  12.0297
  16657.084  16657.070  0.500  1.032382  18.2418  33.7606  12.0241
  16666.792  16666.770  0.500  1.030894  18.1898  33.6666  12.0085
  16676.634  16676.650  0.500  1.029084  18.1458  33.5918  12.0035
  16686.707  16686.690  0.500  1.027479  18.1064  33.5178  11.9963
  16696.902  16696.900  0.500  1.026050  18.0459  33.4087  11.9743
  16707.293  16707.290  0.500  1.024738  17.9371  33.2166  11.9211
  16717.869  16717.850  0.500  1.023350  15.3169  28.3636  10.1936
  16728.593  16728.580  0.500  1.021502  17.9888  33.3137  11.9947
  16739.528  16739.480  0.500  1.019762  17.9231  33.1995  11.9744
  16750.563  16750.550  0.500  1.017928  17.8672  33.0953  11.9588
  16761.822  16761.790  0.500  1.016284  17.821  33.0168  11.95
  16773.244  16773.210  0.500  1.014623  17.7692  32.9226  11.9357
  16784.793  16784.790  0.500  1.012865  17.7168  32.8281  11.9224
  16796.606  16796.550  0.500  1.011072  17.6509  32.712  11.9016
  16808.521  16808.480  0.500  1.009430  17.5724  32.5697  11.8693
  16820.578  16820.580  0.500  1.007348  17.4931  32.4246  11.841
  16832.889  16832.850  0.500  1.005579  16.8247  31.1958  11.4124
  16845.329  16845.290  0.500  1.003779  17.6142  32.6561  11.9682
  16857.912  16857.910  0.500  1.001978  17.4922  32.433  11.9079
  16870.739  16870.690  0.500  0.999830  17.4311  32.3256  11.894
  16883.673  16883.650  0.500  0.998152  17.3668  32.2099  11.8713
  16896.777  16896.780  0.500  0.996045  17.2991  32.0861  11.8506
  16910.115  16910.080  0.500  0.994150  17.2262  31.9529  11.8238
  16923.625  16923.550  0.500  0.992351  16.9699  31.482  11.6705
  16937.206  16937.200  0.500  0.990517  17.0574  31.6484  11.7537
  16951.024  16951.010  0.500  0.988318  14.5668  27.0335  10.0619
  16965.016  16965.000  0.500  0.986351  17.1293  31.7884  11.855
  16979.195  16979.160  0.500  0.984225  17.0285  31.609  11.8132
  16993.500  16993.490  0.500  0.982124  16.9696  31.4993  11.7969
  17007.994  17007.990  0.500  0.980087  16.9001  31.3796  11.7761
  17022.715  17022.660  0.500  0.977982  16.8334  31.2526  11.7532
  17037.539  17037.500  0.500  0.975968  16.7664  31.1379  11.7336
  17052.529  17052.520  0.500  0.973879  16.6952  31.0045  11.7078
  17067.712  17067.700  0.500  0.971480  16.5183  30.6829  11.6142
  17083.101  17083.060  0.500  0.969542  16.6581  30.9493  11.7377
  17098.659  17098.590  0.500  0.967251  16.5705  30.7876  11.7032
  17114.335  17114.290  0.500  0.965083  16.5021  30.6643  11.6816
  17130.169  17130.160  0.500  0.962817  16.4319  30.5367  11.6594
  17146.291  17146.210  0.500  0.960458  16.3683  30.4218  11.643
  17162.520  17162.420  0.500  0.958403  16.3024  30.3084  11.6234
  17178.780  17178.810  0.500  0.956106  16.2409  30.199  11.6081
  17195.383  17195.370  0.500  0.953849  16.2423  30.207  11.6374
  17212.070  17212.100  0.500  0.951656  16.1764  30.0853  11.616
  17228.984  17229.000  0.500  0.949239  16.1191  29.9848  11.6052
  17240.366  17240.360  0.500  0.947617  16.0745  29.8994  11.5909