File: xdidata/Bi/Bi-L3-Bi2Ce2Ti4O12.xdi
# XDI/1.0 BlueSky/1.10.0 BMM/2023-1.0-py310-tiled
# Beamline.name: BMM (06BM) -- Beamline for Materials Measurement (NIST)
# Beamline.xray_source: NSLS-II three-pole wiggler
# Beamline.collimation: paraboloid mirror, 5 nm Rh on 30 nm Pt
# Beamline.focusing: not in use
# Beamline.harmonic_rejection: flat mirror, Pt stripe, pitch = 7.0 mrad relative to beam
# Beamline.software: Bluesky 1.10.0, Ophyd 1.7.0, DataBroker 2.0.0b13, Python 3.10.8, 2023-1.0-py310-tiled
# Detector.I0: 10 cm N2
# Detector.I1: 25 cm N2
# Detector.I2: 25 cm N2
# Element.symbol: Bi
# Element.edge: L3
# Element.reference: Bi
# Element.reference_material: BiO2
# Facility.name: NSLS-II
# Facility.energy: 3.0
# Facility.current: 399.7
# Facility.mode: top-off
# Facility.GUP: 301027
# Facility.SAF: 310583
# Facility.cycle: 2023-2
# Mono.name: Si(111)
# Mono.d_spacing: 3.13519
# Mono.encoder_resolution: 0.0000050 deg/ct
# Mono.angle_offset: 16.0754 deg
# Mono.scan_mode: pseudo channel cut
# Mono.scan_type: step
# Mono.direction: forward in energy
# Sample.name: Bi2Ce2Ti4O12
# Sample.prep: Powder in PEG pellet
# Sample.x: 145.711 mm
# Sample.y: 114.376 mm
# Sample.SDD_position: 205.000 mm
# Scan.experimenters: Bruce Ravel
# Scan.edge_energy: 13418.6
# Scan.start_time: 2023-06-27T13:49:32
# Scan.end_time: 2023-06-27T13:56:22
# Scan.transient_id: 85132
# Scan.uid: 56efffd2-53d1-4826-ab5b-607eaa8fae14
# Scan.plot_hint: ln(I0/It)  --  ln($5/$6)
# Column.1: energy eV
# Column.2: requested_energy eV
# Column.3: measurement_time seconds
# Column.4: xmu
# Column.5: I0 nA
# Column.6: It nA
# Column.7: Ir nA
# ///////////
# sample courtesy Martin Stennett, University of Sheffield
# -----------
# energy  requested_energy  measurement_time  xmu  I0  It  Ir
  13218.552  13218.600  0.500  -0.028211  45.0116  46.2996  23.9016
  13248.586  13248.600  0.500  -0.031990  44.7091  46.1624  23.9345
  13278.659  13278.600  0.500  -0.035903  43.7719  45.372  23.6177
  13308.630  13308.600  0.500  -0.039644  43.4378  45.1944  23.6181
  13338.638  13338.600  0.500  -0.043120  43.1701  45.0723  23.6333
  13368.619  13368.600  0.500  -0.046338  42.9161  44.9515  23.624
  13390.560  13390.600  0.500  -0.047812  42.7117  44.8034  23.5237
  13396.542  13396.600  0.500  -0.047860  42.7746  44.8715  23.524
  13402.577  13402.600  0.500  -0.047516  42.713  44.7916  23.4226
  13408.563  13408.600  0.500  -0.046376  42.6605  44.6855  23.2422
  13409.434  13409.500  0.500  -0.046242  42.6486  44.667  23.2025
  13410.344  13410.400  0.500  -0.045833  42.647  44.6471  23.1655
  13411.271  13411.300  0.500  -0.045500  42.6372  44.622  23.1146
  13412.166  13412.200  0.500  -0.045006  42.6247  44.5868  23.0537
  13413.069  13413.100  0.500  -0.044586  42.6111  44.5539  22.9905
  13413.972  13414.000  0.500  -0.044023  42.5987  44.5159  22.9159
  13414.883  13414.900  0.500  -0.043242  42.5943  44.4766  22.8275
  13415.795  13415.800  0.500  -0.042351  42.5774  44.4194  22.7199
  13416.675  13416.700  0.500  -0.041414  42.5736  44.3738  22.603
  13417.578  13417.600  0.500  -0.040075  42.5578  44.2979  22.4531
  13418.482  13418.500  0.500  -0.038469  42.5421  44.2106  22.2675
  13419.370  13419.400  0.500  -0.036484  42.5256  44.1057  22.0349
  13420.259  13420.300  0.500  -0.033840  42.5155  43.9788  21.7445
  13421.179  13421.200  0.500  -0.030535  42.5021  43.8199  21.3753
  13422.083  13422.100  0.500  -0.026635  42.4855  43.6324  20.9601
  13422.995  13423.000  0.500  -0.022269  42.4832  43.4399  20.5351
  13423.892  13423.900  0.500  -0.017638  42.4579  43.2134  20.1022
  13424.805  13424.800  0.500  -0.013026  42.451  43.0076  19.6977
  13425.709  13425.700  0.500  -0.008491  42.4408  42.8027  19.3002
  13426.606  13426.600  0.500  -0.003584  42.4315  42.5838  18.871
  13427.504  13427.500  0.500  0.002400  42.4017  42.3  18.3555
  13428.417  13428.400  0.500  0.010154  42.3682  41.9402  17.7139
  13429.314  13429.300  0.500  0.020340  42.3271  41.4748  16.9494
  13430.204  13430.200  0.500  0.033182  42.3322  40.9506  16.138
  13431.094  13431.100  0.500  0.047683  42.342  40.3703  15.34
  13431.983  13432.000  0.500  0.062385  42.3493  39.7881  14.6196
  13432.897  13432.900  0.500  0.075526  42.3374  39.2576  14.0033
  13433.787  13433.800  0.500  0.085547  42.3198  38.85  13.5124
  13434.685  13434.700  0.500  0.092642  42.3075  38.5641  13.1239
  13435.592  13435.600  0.500  0.097044  42.3008  38.3886  12.8094
  13436.498  13436.500  0.500  0.099421  42.2789  38.2777  12.5482
  13437.412  13437.400  0.500  0.101046  42.2698  38.2073  12.3186
  13438.319  13438.300  0.500  0.103143  42.2568  38.1156  12.1076
  13439.210  13439.200  0.500  0.106295  42.2377  37.9784  11.9105
  13440.116  13440.100  0.500  0.110343  42.2389  37.826  11.7342
  13441.000  13441.000  0.500  0.114945  42.218  37.6337  11.5685
  13441.899  13441.900  0.500  0.119537  42.2058  37.4506  11.421
  13442.798  13442.800  0.500  0.123458  42.2062  37.3043  11.2971
  13443.595  13443.600  0.500  0.126115  42.1857  37.1873  11.2004
  13446.609  13446.610  0.500  0.126035  42.159  37.1667  11.0321
  13449.823  13449.800  0.500  0.117155  42.1138  37.458  11.2192
  13453.188  13453.160  0.500  0.109749  42.0808  37.7069  11.5587
  13456.681  13456.680  0.500  0.104818  42.0497  37.8653  11.835
  13460.405  13460.380  0.500  0.102611  42.0076  37.9109  11.9341
  13464.282  13464.250  0.500  0.103130  41.9679  37.8555  11.9157
  13468.303  13468.300  0.500  0.102761  41.9308  37.8359  11.9042
  13472.518  13472.510  0.500  0.101547  41.8678  37.825  11.9048
  13476.909  13476.890  0.500  0.102150  41.8303  37.7683  11.9017
  13481.462  13481.450  0.500  0.105592  41.5913  37.4235  11.7788
  13486.201  13486.180  0.500  0.110075  41.7579  37.4054  11.6917
  13491.070  13491.080  0.500  0.111668  41.7291  37.3201  11.548
  13496.157  13496.150  0.500  0.110457  41.6768  37.3184  11.4926
  13501.392  13501.390  0.500  0.106687  41.629  37.4165  11.5299
  13506.837  13506.810  0.500  0.103502  41.5688  37.4815  11.6022
  13512.399  13512.390  0.500  0.101909  41.5106  37.4887  11.6603
  13518.181  13518.150  0.500  0.100797  41.4501  37.4758  11.7028
  13524.088  13524.080  0.500  0.100045  41.385  37.445  11.741
  13530.207  13530.180  0.500  0.099289  41.4501  37.5322  11.8066
  13536.453  13536.450  0.500  0.098803  41.3172  37.4301  11.8082
  13542.912  13542.890  0.500  0.098028  41.3747  37.5113  11.8487
  13549.506  13549.500  0.500  0.097437  41.2916  37.4581  11.8251
  13556.306  13556.290  0.500  0.097526  41.0313  37.2186  11.7349
  13563.259  13563.250  0.500  0.097706  41.1802  37.347  11.7642
  13570.387  13570.370  0.500  0.096818  41.0948  37.3026  11.7545
  13577.668  13577.670  0.500  0.095305  40.9122  37.1931  11.7352
  13585.174  13585.150  0.500  0.093908  40.9756  37.3028  11.7831
  13592.802  13592.790  0.500  0.092451  40.6424  37.0534  11.7201
  13600.600  13600.600  0.500  0.090733  40.8432  37.3005  11.8204
  13608.601  13608.590  0.500  0.089584  40.7664  37.2732  11.8526
  13616.781  13616.750  0.500  0.088561  40.6758  37.2285  11.8791
  13625.102  13625.070  0.500  0.088024  40.6078  37.1861  11.8993
  13633.586  13633.570  0.500  0.087513  40.5248  37.1291  11.8913
  13642.261  13642.250  0.500  0.086790  40.4463  37.084  11.8674
  13651.101  13651.090  0.500  0.085433  40.3429  37.0394  11.8468
  13660.099  13660.100  0.500  0.084242  40.2873  37.0324  11.8591
  13669.321  13669.290  0.500  0.083339  40.1922  36.9784  11.8656
  13678.695  13678.650  0.500  0.082141  40.0999  36.9378  11.8737
  13688.213  13688.170  0.500  0.080976  40.0095  36.8974  11.8751
  13697.891  13697.870  0.500  0.079671  39.9175  36.8606  11.8732
  13707.765  13707.750  0.500  0.078274  39.8285  36.8299  11.8824
  13717.792  13717.790  0.500  0.076953  39.737  36.7938  11.9049
  13728.007  13728.000  0.500  0.075588  39.6496  36.763  11.9309
  13738.402  13738.390  0.500  0.074334  39.5483  36.7151  11.9414
  13748.969  13748.950  0.500  0.073194  39.4402  36.6565  11.9423
  13759.703  13759.680  0.500  0.071991  39.3443  36.6114  11.946
  13770.610  13770.580  0.500  0.070524  39.2384  36.5665  11.9465
  13781.676  13781.650  0.500  0.069123  39.1306  36.5172  11.956
  13792.901  13792.890  0.500  0.067580  39.0211  36.4712  11.9699
  13804.337  13804.310  0.500  0.065994  38.9157  36.4304  11.9816
  13815.908  13815.890  0.500  0.064487  38.7845  36.3624  11.984
  13827.657  13827.650  0.500  0.062988  38.6958  36.3336  12.0028
  13839.611  13839.580  0.500  0.061459  38.5947  36.2941  12.0176
  13851.677  13851.680  0.500  0.059928  38.4597  36.2226  12.023
  13863.984  13863.950  0.500  0.058317  38.3296  36.1583  12.0345
  13876.413  13876.390  0.500  0.056770  38.1532  36.0475  12.0312
  13889.042  13889.010  0.500  0.055336  37.8521  35.8144  11.9789
  13901.838  13901.790  0.500  0.053662  37.6518  35.6845  11.9616
  13914.775  13914.750  0.500  0.051906  37.5873  35.686  11.9882
  13927.899  13927.880  0.500  0.050391  37.4631  35.6221  11.9957
  13941.200  13941.180  0.500  0.048772  37.3807  35.6014  12.0213
  13954.688  13954.650  0.500  0.047008  37.2527  35.5421  12.0318
  13968.331  13968.300  0.500  0.045359  37.0457  35.4029  12.0137
  13982.172  13982.110  0.500  0.043698  37.0702  35.4852  12.0728
  13996.134  13996.100  0.500  0.041956  36.9386  35.4209  12.0825
  14010.279  14010.260  0.500  0.040101  36.8118  35.3648  12.0952
  14024.616  14024.590  0.500  0.038414  36.6736  35.2915  12.1053
  14039.104  14039.090  0.500  0.036616  36.5481  35.2341  12.1198
  14053.785  14053.760  0.500  0.034795  36.4131  35.1679  12.1301
  14058.715  14058.690  0.500  0.034175  36.3603  35.1387  12.1318