File: xdidata/Bi/Bi-L1-BismuthFluoride.xdi
# XDI/1.0 BlueSky/1.10.0 BMM/2023-1.0-py310-tiled
# Beamline.name: BMM (06BM) -- Beamline for Materials Measurement (NIST)
# Beamline.xray_source: NSLS-II three-pole wiggler
# Beamline.collimation: paraboloid mirror, 5 nm Rh on 30 nm Pt
# Beamline.focusing: not in use
# Beamline.harmonic_rejection: flat mirror, Pt stripe, pitch = 7.0 mrad relative to beam
# Beamline.software: Bluesky 1.10.0, Ophyd 1.7.0, DataBroker 2.0.0b13, Python 3.10.8, 2023-1.0-py310-tiled
# Detector.I0: 10 cm N2
# Detector.I1: 25 cm N2
# Detector.I2: 25 cm N2
# Element.symbol: Bi
# Element.edge: L1
# Element.reference: Bi
# Element.reference_material: BiO2
# Facility.name: NSLS-II
# Facility.energy: 3.0
# Facility.current: 400.0
# Facility.mode: top-off
# Facility.GUP: 301027
# Facility.SAF: 310583
# Facility.cycle: 2023-2
# Mono.name: Si(111)
# Mono.d_spacing: 3.13519
# Mono.encoder_resolution: 0.0000050 deg/ct
# Mono.angle_offset: 16.0754 deg
# Mono.scan_mode: pseudo channel cut
# Mono.scan_type: step
# Mono.direction: forward in energy
# Sample.name: BiF3
# Sample.prep: powder on tape
# Sample.x: 143.785 mm
# Sample.y: 114.695 mm
# Sample.SDD_position: 205.000 mm
# Scan.experimenters: Bruce Ravel
# Scan.edge_energy: 16387.5
# Scan.start_time: 2023-06-23T18:58:11
# Scan.end_time: 2023-06-23T19:06:00
# Scan.transient_id: 84953
# Scan.uid: 103accd8-b539-4ba7-ac20-512e32a08f51
# Scan.plot_hint: ln(I0/It)  --  ln($5/$6)
# Column.1: energy eV
# Column.2: requested_energy eV
# Column.3: measurement_time seconds
# Column.4: xmu
# Column.5: I0 nA
# Column.6: It nA
# Column.7: Ir nA
# ///////////
# BMM standards collection
# -----------
# energy  requested_energy  measurement_time  xmu  I0  It  Ir
  16187.438  16187.500  0.500  1.088096  20.4223  6.879416  2.598060
  16217.624  16217.500  0.500  1.081570  20.348  6.899264  2.616345
  16247.623  16247.500  0.500  1.074852  20.2081  6.898017  2.626436
  16277.630  16277.500  0.500  1.068522  20.0859  6.899843  2.635309
  16307.551  16307.500  0.500  1.063374  19.9253  6.879997  2.637171
  16337.583  16337.500  0.500  1.060922  19.8427  6.868279  2.636344
  16359.503  16359.500  0.500  1.066216  19.7473  6.799168  2.604877
  16365.496  16365.500  0.500  1.071156  19.7202  6.756379  2.580322
  16371.495  16371.500  0.500  1.081035  19.6386  6.662293  2.531754
  16377.521  16377.500  0.500  1.102250  19.6493  6.525969  2.455552
  16378.367  16378.400  0.500  1.107090  19.6459  6.493342  2.437360
  16379.260  16379.300  0.500  1.112925  19.6483  6.456352  2.415908
  16380.153  16380.200  0.500  1.119365  19.6442  6.413577  2.393399
  16381.070  16381.100  0.500  1.127913  19.643  6.358589  2.363034
  16381.987  16382.000  0.500  1.137606  19.6312  6.293484  2.328706
  16382.905  16382.900  0.500  1.148728  19.6405  6.226826  2.290848
  16383.775  16383.800  0.500  1.161995  19.6218  6.138913  2.244027
  16384.692  16384.700  0.500  1.177782  19.6203  6.042298  2.192187
  16385.563  16385.600  0.500  1.195783  19.6087  5.930986  2.132973
  16386.480  16386.500  0.500  1.217136  19.6087  5.805685  2.067012
  16387.398  16387.400  0.500  1.239892  19.6091  5.675189  1.997180
  16388.304  16388.300  0.500  1.265891  19.5998  5.526909  1.922282
  16389.163  16389.200  0.500  1.290971  19.5915  5.387742  1.851305
  16390.092  16390.100  0.500  1.316469  19.5802  5.249056  1.782084
  16391.011  16391.000  0.500  1.338208  19.583  5.136936  1.725595
  16391.882  16391.900  0.500  1.353464  19.575  5.057070  1.685743
  16392.765  16392.800  0.500  1.362629  19.569  5.009418  1.662208
  16393.683  16393.700  0.500  1.363931  19.6583  5.025713  1.665169
  16394.578  16394.600  0.500  1.357912  19.6379  5.050802  1.676164
  16395.485  16395.500  0.500  1.346371  19.6269  5.106590  1.700710
  16396.415  16396.400  0.500  1.330706  19.6144  5.183898  1.734354
  16397.310  16397.300  0.500  1.314088  19.6253  5.273694  1.775376
  16398.217  16398.200  0.500  1.298375  19.6155  5.354533  1.812671
  16399.125  16399.100  0.500  1.284296  19.5978  5.425568  1.846148
  16400.044  16400.000  0.500  1.272197  19.5966  5.491268  1.877048
  16400.928  16400.900  0.500  1.262737  19.5809  5.539006  1.899126
  16401.811  16401.800  0.500  1.255533  19.574  5.577110  1.918372
  16402.684  16402.700  0.500  1.250071  19.5511  5.601097  1.932229
  16403.615  16403.600  0.500  1.245495  19.5657  5.630983  1.946395
  16404.487  16404.500  0.500  1.241535  19.5632  5.652603  1.956917
  16405.395  16405.400  0.500  1.238576  19.5785  5.673793  1.967053
  16406.303  16406.300  0.500  1.236012  19.5698  5.685808  1.973692
  16407.211  16407.200  0.500  1.233836  19.5642  5.696586  1.979093
  16408.108  16408.100  0.500  1.232133  19.5605  5.705203  1.984982
  16409.028  16409.000  0.500  1.230989  19.5551  5.710167  1.988327
  16409.901  16409.900  0.500  1.230239  19.544  5.711192  1.990593
  16410.821  16410.800  0.500  1.229819  19.5471  5.714515  1.994237
  16411.694  16411.700  0.500  1.229768  19.56  5.718570  1.996438
  16412.497  16412.500  0.500  1.229802  19.5383  5.712016  1.996218
  16415.471  16415.510  0.500  1.231467  19.5174  5.696439  1.994136
  16418.707  16418.700  0.500  1.234618  19.5076  5.675666  1.984827
  16422.026  16422.060  0.500  1.238089  19.4676  5.644380  1.969886
  16425.572  16425.580  0.500  1.241666  19.4814  5.628229  1.959722
  16429.320  16429.280  0.500  1.246330  19.4587  5.595510  1.944962
  16433.235  16433.150  0.500  1.249914  19.4435  5.571124  1.935185
  16437.259  16437.200  0.500  1.249938  19.3994  5.558371  1.930260
  16441.463  16441.410  0.500  1.247196  19.3769  5.567167  1.934737
  16445.811  16445.790  0.500  1.243800  19.3472  5.577544  1.938622
  16450.386  16450.350  0.500  1.240017  19.355  5.600940  1.948250
  16455.118  16455.080  0.500  1.236349  19.3476  5.619361  1.958059
  16460.007  16459.980  0.500  1.232535  19.2993  5.626770  1.965460
  16465.102  16465.050  0.500  1.229810  19.2956  5.641037  1.975242
  16470.294  16470.290  0.500  1.228325  19.2777  5.644180  1.978631
  16475.728  16475.710  0.500  1.227878  19.2522  5.639231  1.979244
  16481.355  16481.290  0.500  1.227615  19.2246  5.632626  1.976938
  16487.070  16487.050  0.500  1.227367  19.205  5.628280  1.976355
  16492.956  16492.980  0.500  1.226731  19.1782  5.623993  1.975463
  16499.096  16499.080  0.500  1.225820  19.1505  5.620995  1.976104
  16505.361  16505.350  0.500  1.224047  19.1175  5.621276  1.976870
  16511.785  16511.790  0.500  1.222222  19.0922  5.624089  1.979728
  16518.394  16518.400  0.500  1.219760  19.0832  5.635291  1.984756
  16525.223  16525.190  0.500  1.217677  19.0396  5.634131  1.987739
  16532.202  16532.150  0.500  1.214893  19.0034  5.639106  1.992822
  16539.283  16539.270  0.500  1.212227  18.9695  5.644071  1.997376
  16546.574  16546.570  0.500  1.209967  18.9155  5.640745  1.998831
  16554.063  16554.050  0.500  1.207759  18.9168  5.653581  2.005136
  16561.692  16561.690  0.500  1.205804  18.8794  5.653444  2.007839
  16569.520  16569.500  0.500  1.204172  18.8525  5.654612  2.012204
  16577.488  16577.490  0.500  1.202043  18.8346  5.661306  2.015986
  16585.669  16585.650  0.500  1.200375  18.8585  5.677931  2.024346
  16593.978  16593.970  0.500  1.198289  18.7987  5.671759  2.022620
  16602.477  16602.470  0.500  1.196281  18.762  5.672061  2.025223
  16611.178  16611.150  0.500  1.193931  18.7487  5.681374  2.032397
  16619.997  16619.990  0.500  1.191456  18.6864  5.676527  2.033005
  16629.044  16629.000  0.500  1.188894  18.6492  5.679771  2.037317
  16638.198  16638.190  0.500  1.186500  18.618  5.683854  2.042328
  16647.569  16647.550  0.500  1.183387  18.5899  5.692979  2.047290
  16657.084  16657.070  0.500  1.180966  18.5356  5.690081  2.049521
  16666.780  16666.770  0.500  1.178305  18.4962  5.693144  2.054099
  16676.646  16676.650  0.500  1.175803  18.4489  5.692793  2.057614
  16686.707  16686.690  0.500  1.173313  18.4194  5.697848  2.062379
  16696.926  16696.900  0.500  1.170674  18.3464  5.690266  2.062758
  16707.306  16707.290  0.500  1.168060  18.258  5.677668  2.061310
  16717.869  16717.850  0.500  1.164642  15.7454  4.913109  1.785081
  16728.581  16728.580  0.500  1.162182  18.2851  5.719636  2.082981
  16739.516  16739.480  0.500  1.159401  18.2398  5.721356  2.086463
  16750.526  16750.550  0.500  1.156383  18.1781  5.719226  2.089832
  16761.847  16761.790  0.500  1.153106  18.1346  5.724287  2.094834
  16773.207  16773.210  0.500  1.150112  18.0767  5.723115  2.098422
  16784.793  16784.790  0.500  1.146947  18.0299  5.726374  2.103198
  16796.593  16796.550  0.500  1.143940  17.9568  5.720330  2.104682
  16808.484  16808.480  0.500  1.140590  17.8707  5.712030  2.104500
  16820.591  16820.580  0.500  1.137760  17.8049  5.707115  2.107612
  16832.901  16832.850  0.500  1.134902  17.1289  5.506148  2.037075
  16845.279  16845.290  0.500  1.131109  17.9343  5.786956  2.144872
  16857.937  16857.910  0.500  1.128021  17.8061  5.763352  2.140272
  16870.727  16870.690  0.500  1.124527  17.7434  5.763148  2.143259
  16883.661  16883.650  0.500  1.121313  17.675  5.759424  2.146053
  16896.827  16896.780  0.500  1.118196  17.6092  5.755891  2.148839
  16910.128  16910.080  0.500  1.114597  17.5392  5.753687  2.152808
  16923.537  16923.550  0.500  1.110922  17.2734  5.687339  2.131110
  16937.257  16937.200  0.500  1.107433  17.3677  5.738387  2.154011
  16951.062  16951.010  0.500  1.104649  14.7346  4.881959  1.837058
  16965.041  16965.000  0.500  1.100725  17.4569  5.806693  2.189048
  16979.195  16979.160  0.500  1.096984  17.3601  5.796124  2.188938
  16993.525  16993.490  0.500  1.093485  17.2947  5.794529  2.193950
  17008.032  17007.990  0.500  1.089900  17.2333  5.794687  2.198924
  17022.677  17022.660  0.500  1.086195  17.1636  5.792684  2.201238
  17037.501  17037.500  0.500  1.082635  17.1009  5.792102  2.206418
  17052.580  17052.520  0.500  1.078883  17.0155  5.784854  2.209044
  17067.725  17067.700  0.500  1.075083  16.8569  5.752745  2.200232
  17083.114  17083.060  0.500  1.071265  16.9727  5.814434  2.229896
  17098.595  17098.590  0.500  1.067479  16.892  5.808709  2.231907
  17114.335  17114.290  0.500  1.063542  16.8238  5.808078  2.236004
  17130.195  17130.160  0.500  1.059443  16.75  5.806374  2.240071
  17146.265  17146.210  0.500  1.055579  16.6911  5.808357  2.245347
  17162.443  17162.420  0.500  1.051645  16.6297  5.809782  2.251927
  17178.858  17178.810  0.500  1.047931  16.5654  5.808870  2.256333
  17195.396  17195.370  0.500  1.043812  16.499  5.809457  2.262141
  17212.161  17212.100  0.500  1.039721  16.4315  5.809424  2.267731
  17229.049  17229.000  0.500  1.035772  16.373  5.811631  2.272686
  17240.431  17240.360  0.500  1.032885  16.319  5.809217  2.276016