File: xdidata/Bi/Bi-L3-BismuthMetal.xdi
# XDI/1.0 BlueSky/1.10.0 BMM/2023-1.0-py310-tiled
# Beamline.name: BMM (06BM) -- Beamline for Materials Measurement (NIST)
# Beamline.xray_source: NSLS-II three-pole wiggler
# Beamline.collimation: paraboloid mirror, 5 nm Rh on 30 nm Pt
# Beamline.focusing: not in use
# Beamline.harmonic_rejection: flat mirror, Pt stripe, pitch = 7.0 mrad relative to beam
# Beamline.software: Bluesky 1.10.0, Ophyd 1.7.0, DataBroker 2.0.0b13, Python 3.10.8, 2023-1.0-py310-tiled
# Detector.I0: 10 cm N2
# Detector.I1: 25 cm N2
# Detector.I2: 25 cm N2
# Element.symbol: Bi
# Element.edge: L3
# Element.reference: Bi
# Element.reference_material: BiO2
# Facility.name: NSLS-II
# Facility.energy: 3.0
# Facility.current: 399.8
# Facility.mode: top-off
# Facility.GUP: 301027
# Facility.SAF: 310583
# Facility.cycle: 2023-2
# Mono.name: Si(111)
# Mono.d_spacing: 3.13519
# Mono.encoder_resolution: 0.0000050 deg/ct
# Mono.angle_offset: 16.0754 deg
# Mono.scan_mode: pseudo channel cut
# Mono.scan_type: step
# Mono.direction: forward in energy
# Sample.name: Bi
# Sample.prep: powder in PEG pellet
# Sample.x: 143.785 mm
# Sample.y: 114.695 mm
# Sample.SDD_position: 205.000 mm
# Scan.experimenters: Bruce Ravel
# Scan.edge_energy: 13418.6
# Scan.start_time: 2023-06-23T17:35:02
# Scan.end_time: 2023-06-23T17:42:53
# Scan.transient_id: 84904
# Scan.uid: eec6dd28-c707-4b1f-9133-84df9fd360cf
# Scan.plot_hint: ln(I0/It)  --  ln($5/$6)
# Column.1: energy eV
# Column.2: requested_energy eV
# Column.3: measurement_time seconds
# Column.4: xmu
# Column.5: I0 nA
# Column.6: It nA
# Column.7: Ir nA
# ///////////
# BMM standards collection
# -----------
# energy  requested_energy  measurement_time  xmu  I0  It  Ir
  13218.636  13218.600  0.500  0.329442  45.0046  32.3729  16.4682
  13248.686  13248.600  0.500  0.324764  44.6946  32.3007  16.4971
  13278.621  13278.600  0.500  0.320368  43.776  31.7762  16.2958
  13308.638  13308.600  0.500  0.316061  43.4416  31.6696  16.3076
  13338.653  13338.600  0.500  0.312170  43.1597  31.5868  16.3246
  13368.642  13368.600  0.500  0.309503  42.8857  31.4701  16.303
  13390.537  13390.600  0.500  0.309881  42.7504  31.3589  16.2282
  13396.542  13396.600  0.500  0.311182  42.6897  31.2737  16.1618
  13402.530  13402.600  0.500  0.314057  42.6346  31.1436  16.0455
  13408.547  13408.600  0.500  0.319883  42.5879  30.9288  15.8501
  13409.418  13409.500  0.500  0.321071  42.5757  30.8832  15.808
  13410.329  13410.400  0.500  0.322918  42.5683  30.8208  15.7559
  13411.247  13411.300  0.500  0.324583  42.5521  30.7579  15.6957
  13412.150  13412.200  0.500  0.326582  42.5449  30.6913  15.6329
  13413.053  13413.100  0.500  0.329160  42.5446  30.612  15.5598
  13413.964  13414.000  0.500  0.332181  42.5277  30.5075  15.4658
  13414.876  13414.900  0.500  0.335830  42.5142  30.3868  15.3581
  13415.755  13415.800  0.500  0.340230  42.5068  30.2481  15.234
  13416.659  13416.700  0.500  0.345562  42.4971  30.0804  15.0841
  13417.571  13417.600  0.500  0.352222  42.4793  29.8682  14.895
  13418.451  13418.500  0.500  0.360405  42.6034  29.7114  14.7159
  13419.363  13419.400  0.500  0.370820  42.5868  29.3921  14.4316
  13420.282  13420.300  0.500  0.383116  42.5667  29.0191  14.0813
  13421.163  13421.200  0.500  0.396306  42.5653  28.638  13.7094
  13422.059  13422.100  0.500  0.410423  42.546  28.2237  13.3001
  13422.995  13423.000  0.500  0.425552  42.5353  27.793  12.8784
  13423.900  13423.900  0.500  0.440889  42.5184  27.359  12.4776
  13424.789  13424.800  0.500  0.455771  42.5117  26.9507  12.1091
  13425.709  13425.700  0.500  0.471705  42.4946  26.514  11.7212
  13426.599  13426.600  0.500  0.486590  42.4783  26.1122  11.3332
  13427.488  13427.500  0.500  0.501081  42.4511  25.7201  10.915
  13428.425  13428.400  0.500  0.515342  42.4056  25.3287  10.4311
  13429.298  13429.300  0.500  0.527385  42.3876  25.0149  9.960672
  13430.196  13430.200  0.500  0.537708  42.3943  24.7619  9.500771
  13431.101  13431.100  0.500  0.546420  42.4163  24.5598  9.087787
  13431.999  13432.000  0.500  0.553232  42.4127  24.391  8.746119
  13432.881  13432.900  0.500  0.558542  42.3971  24.2529  8.463249
  13433.795  13433.800  0.500  0.562585  42.3874  24.1495  8.228675
  13434.670  13434.700  0.500  0.565774  42.3817  24.0695  8.039954
  13435.584  13435.600  0.500  0.568210  42.3562  23.9964  7.863698
  13436.490  13436.500  0.500  0.569640  42.3548  23.9613  7.714617
  13437.388  13437.400  0.500  0.570870  42.3393  23.9232  7.584734
  13438.295  13438.300  0.500  0.571459  42.3282  23.9028  7.467761
  13439.210  13439.200  0.500  0.571621  42.317  23.8926  7.371391
  13440.108  13440.100  0.500  0.572021  42.3005  23.8737  7.291309
  13441.007  13441.000  0.500  0.572608  42.3019  23.8605  7.223858
  13441.907  13441.900  0.500  0.573653  42.2754  23.8207  7.157134
  13442.798  13442.800  0.500  0.575044  42.2834  23.792  7.103669
  13443.603  13443.600  0.500  0.576824  42.2576  23.7352  7.045450
  13446.625  13446.610  0.500  0.582483  42.2367  23.5896  6.914420
  13449.799  13449.800  0.500  0.584407  42.1735  23.509  6.966011
  13453.188  13453.160  0.500  0.583811  42.1651  23.5183  7.133101
  13456.696  13456.680  0.500  0.580465  42.1308  23.578  7.284716
  13460.397  13460.380  0.500  0.580684  42.0868  23.5482  7.320109
  13464.258  13464.250  0.500  0.582541  42.047  23.4823  7.297980
  13468.335  13468.300  0.500  0.582246  42.0047  23.4656  7.290285
  13472.541  13472.510  0.500  0.580179  41.9618  23.4901  7.300336
  13476.893  13476.890  0.500  0.580561  41.9064  23.4502  7.296928
  13481.470  13481.450  0.500  0.582302  41.6138  23.2459  7.224158
  13486.193  13486.180  0.500  0.582727  41.8402  23.3625  7.208382
  13491.086  13491.080  0.500  0.581811  41.8095  23.3667  7.140646
  13496.173  13496.150  0.500  0.580385  41.7599  23.3723  7.109340
  13501.384  13501.390  0.500  0.579085  41.7019  23.3702  7.115311
  13506.829  13506.810  0.500  0.578303  41.6487  23.3586  7.141603
  13512.383  13512.390  0.500  0.578015  41.5899  23.3324  7.169186
  13518.189  13518.150  0.500  0.577322  41.5148  23.3064  7.190018
  13524.080  13524.080  0.500  0.577123  41.4552  23.2776  7.209271
  13530.215  13530.180  0.500  0.576472  41.3851  23.2533  7.227109
  13536.445  13536.450  0.500  0.575611  41.2315  23.187  7.225560
  13542.896  13542.890  0.500  0.574438  41.3029  23.2544  7.254751
  13549.498  13549.500  0.500  0.573681  41.2304  23.2312  7.246395
  13556.314  13556.290  0.500  0.572939  40.8693  23.0448  7.178747
  13563.275  13563.250  0.500  0.572180  41.1098  23.198  7.219857
  13570.395  13570.370  0.500  0.571246  41.0227  23.1705  7.214811
  13577.692  13577.670  0.500  0.570300  40.9168  23.1326  7.211321
  13585.142  13585.150  0.500  0.569427  40.9077  23.1476  7.223727
  13592.810  13592.790  0.500  0.568905  40.5192  22.9397  7.167492
  13600.624  13600.600  0.500  0.568151  40.7868  23.1087  7.235382
  13608.593  13608.590  0.500  0.567431  40.6974  23.0746  7.249208
  13616.765  13616.750  0.500  0.566154  40.6271  23.0642  7.271775
  13625.094  13625.070  0.500  0.564621  40.6095  23.0896  7.298032
  13633.578  13633.570  0.500  0.563591  40.6096  23.1134  7.313623
  13642.252  13642.250  0.500  0.562833  40.5319  23.0867  7.300564
  13651.117  13651.090  0.500  0.562344  40.4046  23.0254  7.278203
  13660.123  13660.100  0.500  0.561891  40.3623  23.0118  7.281386
  13669.305  13669.290  0.500  0.561109  40.2776  22.9815  7.287642
  13678.654  13678.650  0.500  0.559863  40.1873  22.9585  7.293889
  13688.164  13688.170  0.500  0.558450  40.093  22.937  7.294145
  13697.883  13697.870  0.500  0.556941  39.9972  22.9167  7.296484
  13707.789  13707.750  0.500  0.555769  39.916  22.8971  7.300566
  13717.808  13717.790  0.500  0.555011  39.8156  22.8568  7.311068
  13728.039  13728.000  0.500  0.554135  39.7185  22.821  7.319261
  13738.426  13738.390  0.500  0.553113  39.6312  22.7941  7.328263
  13748.969  13748.950  0.500  0.551791  39.5249  22.7631  7.330827
  13759.719  13759.680  0.500  0.550340  39.4146  22.7325  7.331151
  13770.602  13770.580  0.500  0.548843  39.318  22.7108  7.334597
  13781.676  13781.650  0.500  0.547396  39.2182  22.6859  7.341541
  13792.910  13792.890  0.500  0.546193  39.1088  22.6499  7.347230
  13804.328  13804.310  0.500  0.545106  38.9964  22.6093  7.351066
  13815.908  13815.890  0.500  0.543861  38.8672  22.5625  7.350907
  13827.690  13827.650  0.500  0.542348  38.7745  22.5428  7.360981
  13839.594  13839.580  0.500  0.540929  38.6667  22.512  7.368907
  13851.728  13851.680  0.500  0.539204  38.5258  22.4688  7.373271
  13863.992  13863.950  0.500  0.537777  38.4082  22.4321  7.382405
  13876.430  13876.390  0.500  0.536491  38.2335  22.3588  7.376463
  13889.059  13889.010  0.500  0.535141  37.9247  22.2082  7.344631
  13901.829  13901.790  0.500  0.533681  37.7284  22.1256  7.332458
  13914.784  13914.750  0.500  0.532164  37.6585  22.1181  7.347139
  13927.916  13927.880  0.500  0.530667  37.5348  22.0784  7.350949
  13941.217  13941.180  0.500  0.528952  37.4487  22.0656  7.366377
  13954.705  13954.650  0.500  0.527360  37.3253  22.0279  7.375079
  13968.331  13968.300  0.500  0.525827  37.1181  21.9393  7.363458
  13982.172  13982.110  0.500  0.524327  37.1455  21.9884  7.397851
  13996.134  13996.100  0.500  0.522705  37.0125  21.9453  7.402064
  14010.331  14010.260  0.500  0.521136  36.887  21.9052  7.411020
  14024.582  14024.590  0.500  0.519210  36.7437  21.8621  7.416640
  14039.130  14039.090  0.500  0.517526  36.617  21.8235  7.425929
  14053.794  14053.760  0.500  0.515672  36.4808  21.7827  7.430707
  14068.636  14068.600  0.500  0.514086  36.2374  21.6716  7.413248
  14083.667  14083.620  0.500  0.512461  36.1687  21.6658  7.431753
  14098.842  14098.800  0.500  0.510900  36.1233  21.6724  7.456350
  14114.199  14114.160  0.500  0.508911  35.9013  21.582  7.446603
  14129.729  14129.690  0.500  0.507126  35.9162  21.6296  7.486622
  14145.416  14145.390  0.500  0.505248  35.7657  21.5794  7.491363
  14161.287  14161.260  0.500  0.503327  35.5172  21.4707  7.474018
  14177.326  14177.310  0.500  0.501503  35.5433  21.5257  7.514731
  14193.543  14193.520  0.500  0.499696  35.3797  21.4654  7.517824
  14209.938  14209.910  0.500  0.497695  35.2379  21.4222  7.525411
  14226.487  14226.470  0.500  0.496051  35.0924  21.3689  7.530730
  14243.234  14243.200  0.500  0.494010  34.9364  21.3173  7.538530
  14260.145  14260.100  0.500  0.492066  34.7596  21.2507  7.535591
  14271.487  14271.460  0.500  0.490677  32.4201  19.848  7.052033