File: xdidata/Bi/Bi-L3-BismuthFluoride.xdi
# XDI/1.0 BlueSky/1.10.0 BMM/2023-1.0-py310-tiled
# Beamline.name: BMM (06BM) -- Beamline for Materials Measurement (NIST)
# Beamline.xray_source: NSLS-II three-pole wiggler
# Beamline.collimation: paraboloid mirror, 5 nm Rh on 30 nm Pt
# Beamline.focusing: not in use
# Beamline.harmonic_rejection: flat mirror, Pt stripe, pitch = 7.0 mrad relative to beam
# Beamline.software: Bluesky 1.10.0, Ophyd 1.7.0, DataBroker 2.0.0b13, Python 3.10.8, 2023-1.0-py310-tiled
# Detector.I0: 10 cm N2
# Detector.I1: 25 cm N2
# Detector.I2: 25 cm N2
# Element.symbol: Bi
# Element.edge: L3
# Element.reference: Bi
# Element.reference_material: BiO2
# Facility.name: NSLS-II
# Facility.energy: 3.0
# Facility.current: 400.8
# Facility.mode: top-off
# Facility.GUP: 301027
# Facility.SAF: 310583
# Facility.cycle: 2023-2
# Mono.name: Si(111)
# Mono.d_spacing: 3.13519
# Mono.encoder_resolution: 0.0000050 deg/ct
# Mono.angle_offset: 16.0754 deg
# Mono.scan_mode: pseudo channel cut
# Mono.scan_type: step
# Mono.direction: forward in energy
# Sample.name: BiF3
# Sample.prep: powder on tape
# Sample.x: 143.785 mm
# Sample.y: 114.695 mm
# Sample.SDD_position: 205.000 mm
# Scan.experimenters: Bruce Ravel
# Scan.edge_energy: 13418.6
# Scan.start_time: 2023-06-23T17:43:27
# Scan.end_time: 2023-06-23T17:51:35
# Scan.transient_id: 84909
# Scan.uid: 38751a03-b4de-44f2-bad1-bf2b981ad846
# Scan.plot_hint: ln(I0/It)  --  ln($5/$6)
# Column.1: energy eV
# Column.2: requested_energy eV
# Column.3: measurement_time seconds
# Column.4: xmu
# Column.5: I0 nA
# Column.6: It nA
# Column.7: Ir nA
# ///////////
# BMM standards collection
# -----------
# energy  requested_energy  measurement_time  xmu  I0  It  Ir
  13218.621  13218.600  0.500  0.467458  45.2059  28.3257  14.3973
  13248.678  13248.600  0.500  0.460504  44.8901  28.3241  14.4627
  13278.697  13278.600  0.500  0.453474  43.9913  27.9528  14.3295
  13308.630  13308.600  0.500  0.446876  43.6285  27.9058  14.3625
  13338.630  13338.600  0.500  0.441050  43.3551  27.893  14.4072
  13368.642  13368.600  0.500  0.437442  43.0961  27.8266  14.4086
  13390.591  13390.600  0.500  0.439546  42.8896  27.635  14.2965
  13396.589  13396.600  0.500  0.442070  42.8319  27.5283  14.2177
  13402.585  13402.600  0.500  0.446932  42.7805  27.3619  14.0922
  13408.586  13408.600  0.500  0.456030  42.7329  27.0839  13.8767
  13409.465  13409.500  0.500  0.457984  42.7239  27.0253  13.8283
  13410.360  13410.400  0.500  0.460085  42.7173  26.9644  13.7779
  13411.263  13411.300  0.500  0.462482  42.7043  26.8917  13.7166
  13412.150  13412.200  0.500  0.465412  42.6963  26.808  13.6509
  13413.053  13413.100  0.500  0.468523  42.6885  26.7198  13.5739
  13413.964  13414.000  0.500  0.472480  42.6761  26.6066  13.4853
  13414.883  13414.900  0.500  0.476759  42.6627  26.4847  13.3796
  13415.787  13415.800  0.500  0.481620  42.6497  26.3482  13.2604
  13416.698  13416.700  0.500  0.487590  42.6404  26.1857  13.1224
  13417.618  13417.600  0.500  0.494592  42.6264  25.9944  12.9567
  13418.490  13418.500  0.500  0.503062  42.6124  25.7667  12.7546
  13419.394  13419.400  0.500  0.513258  42.6114  25.5047  12.5149
  13420.251  13420.300  0.500  0.526197  42.6078  25.1747  12.2174
  13421.187  13421.200  0.500  0.542538  42.5878  24.7551  11.8465
  13422.083  13422.100  0.500  0.561903  42.5765  24.2738  11.434
  13422.980  13423.000  0.500  0.583377  42.5682  23.7535  11.0081
  13423.908  13423.900  0.500  0.607895  42.5553  23.1712  10.5667
  13424.797  13424.800  0.500  0.632504  42.5459  22.6029  10.1541
  13425.709  13425.700  0.500  0.659951  42.53  21.9828  9.717260
  13426.591  13426.600  0.500  0.690030  42.517  21.3249  9.258866
  13427.480  13427.500  0.500  0.725765  42.4885  20.5625  8.732210
  13428.401  13428.400  0.500  0.773076  42.4429  19.5912  8.084228
  13429.283  13429.300  0.500  0.832132  42.4342  18.464  7.375289
  13430.204  13430.200  0.500  0.911102  42.4335  17.0617  6.562262
  13431.101  13431.100  0.500  1.000514  42.4462  15.6071  5.790989
  13432.023  13432.000  0.500  1.096023  42.4467  14.1856  5.096219
  13432.905  13432.900  0.500  1.188251  42.4397  12.9337  4.518484
  13433.795  13433.800  0.500  1.268628  42.4254  11.9308  4.070227
  13434.701  13434.700  0.500  1.335123  42.412  11.1597  3.726513
  13435.576  13435.600  0.500  1.381146  42.4075  10.6566  3.491037
  13436.498  13436.500  0.500  1.412405  42.3913  10.3247  3.322045
  13437.420  13437.400  0.500  1.432780  42.3817  10.1142  3.201307
  13438.303  13438.300  0.500  1.448476  42.3757  9.955229  3.107388
  13439.210  13439.200  0.500  1.464742  42.3542  9.789645  3.016894
  13440.116  13440.100  0.500  1.482775  42.3454  9.612693  2.931923
  13440.992  13441.000  0.500  1.500747  42.3365  9.439488  2.854214
  13441.883  13441.900  0.500  1.517299  42.3313  9.283393  2.785798
  13442.790  13442.800  0.500  1.529258  42.3153  9.169571  2.734023
  13443.579  13443.600  0.500  1.534164  42.2997  9.121339  2.703462
  13446.649  13446.610  0.500  1.508380  42.2788  9.354951  2.737998
  13449.783  13449.800  0.500  1.458833  42.2301  9.818807  2.904175
  13453.172  13453.160  0.500  1.431291  42.2143  10.0892  3.053847
  13456.696  13456.680  0.500  1.406690  42.3491  10.3735  3.199771
  13460.389  13460.380  0.500  1.381117  42.3091  10.6322  3.300579
  13464.266  13464.250  0.500  1.374478  42.2705  10.6932  3.319257
  13468.311  13468.300  0.500  1.377724  42.2334  10.6492  3.304422
  13472.502  13472.510  0.500  1.389953  42.1718  10.5045  3.261004
  13476.885  13476.890  0.500  1.406084  42.1258  10.3251  3.207803
  13481.462  13481.450  0.500  1.421155  41.8237  10.0977  3.132781
  13486.185  13486.180  0.500  1.435129  42.052  10.0119  3.084483
  13491.062  13491.080  0.500  1.443457  42.0138  9.919870  3.026166
  13496.117  13496.150  0.500  1.440665  41.956  9.933936  3.017009
  13501.861  13501.390  0.500  1.429804  41.9037  10.0299  3.048317
  13506.949  13506.810  0.500  1.420473  41.831  10.1063  3.085429
  13512.375  13512.390  0.500  1.412403  41.7693  10.1732  3.121053
  13518.117  13518.150  0.500  1.404911  41.7117  10.2356  3.152825
  13524.064  13524.080  0.500  1.399117  41.6399  10.2774  3.178138
  13530.143  13530.180  0.500  1.395592  41.5748  10.2975  3.195445
  13536.461  13536.450  0.500  1.395348  41.4239  10.2626  3.192849
  13542.888  13542.890  0.500  1.397299  41.4875  10.2584  3.195962
  13549.473  13549.500  0.500  1.399360  41.415  10.2194  3.182494
  13556.282  13556.290  0.500  1.400937  41.0704  10.1184  3.147864
  13563.243  13563.250  0.500  1.401094  41.2855  10.1697  3.160535
  13570.379  13570.370  0.500  1.399535  41.192  10.1625  3.158983
  13577.644  13577.670  0.500  1.396057  41.0517  10.1632  3.162744
  13585.158  13585.150  0.500  1.391729  41.0583  10.2089  3.180862
  13592.794  13592.790  0.500  1.386868  40.6685  10.1613  3.170483
  13600.616  13600.600  0.500  1.382283  40.9232  10.2719  3.210377
  13608.569  13608.590  0.500  1.378710  40.8295  10.2851  3.225643
  13616.765  13616.750  0.500  1.375807  40.7579  10.2969  3.240451
  13625.085  13625.070  0.500  1.373633  40.6736  10.298  3.249756
  13633.578  13633.570  0.500  1.372331  40.5858  10.2891  3.251142
  13642.261  13642.250  0.500  1.371355  40.5066  10.2791  3.245052
  13651.109  13651.090  0.500  1.370557  40.38  10.2551  3.236839
  13660.099  13660.100  0.500  1.369268  40.3376  10.2576  3.241368
  13669.305  13669.290  0.500  1.367286  40.2478  10.255  3.247301
  13678.679  13678.650  0.500  1.364262  40.1469  10.2603  3.254563
  13688.188  13688.170  0.500  1.360851  40.0486  10.2702  3.261231
  13697.867  13697.870  0.500  1.357464  39.9551  10.2809  3.268110
  13707.732  13707.750  0.500  1.354081  39.8642  10.2923  3.277804
  13717.800  13717.790  0.500  1.350609  39.7715  10.3041  3.290418
  13728.031  13728.000  0.500  1.347233  39.6785  10.3148  3.303461
  13738.402  13738.390  0.500  1.343949  39.5755  10.3218  3.314209
  13748.969  13748.950  0.500  1.340731  39.4739  10.3285  3.320821
  13759.686  13759.680  0.500  1.337526  39.3664  10.3335  3.326670
  13770.585  13770.580  0.500  1.334461  39.2649  10.3384  3.333118
  13781.651  13781.650  0.500  1.331380  39.1592  10.3424  3.341838
  13792.926  13792.890  0.500  1.327553  39.0501  10.3532  3.352452
  13804.345  13804.310  0.500  1.323395  38.939  10.3667  3.365299
  13815.949  13815.890  0.500  1.319228  38.8071  10.3748  3.375080
  13827.674  13827.650  0.500  1.315060  38.7079  10.3915  3.387639
  13839.619  13839.580  0.500  1.311205  38.6013  10.4029  3.399493
  13851.719  13851.680  0.500  1.306900  38.4623  10.4101  3.410437
  13863.992  13863.950  0.500  1.302703  38.336  10.4196  3.424430
  13876.413  13876.390  0.500  1.298274  38.2897  10.4532  3.443140
  13889.042  13889.010  0.500  1.294319  37.9781  10.4092  3.436548
  13901.812  13901.790  0.500  1.290233  37.7833  10.3982  3.440799
  13914.801  13914.750  0.500  1.286204  37.7154  10.4214  3.454739
  13927.916  13927.880  0.500  1.282150  37.5897  10.4289  3.466974
  13941.200  13941.180  0.500  1.277928  37.5021  10.4486  3.483524
  13954.671  13954.650  0.500  1.273364  37.37  10.4594  3.496001
  13968.323  13968.300  0.500  1.268749  37.1603  10.4489  3.501127
  13982.112  13982.110  0.500  1.264233  37.1992  10.5071  3.530243
  13996.126  13996.100  0.500  1.259600  37.0627  10.5172  3.542267
  14010.288  14010.260  0.500  1.255163  36.9422  10.5296  3.556853
  14024.659  14024.590  0.500  1.250018  36.8084  10.5456  3.570988
  14039.130  14039.090  0.500  1.245439  36.6835  10.558  3.587691
  14053.811  14053.760  0.500  1.240437  36.5549  10.5738  3.602192
  14068.636  14068.600  0.500  1.235767  36.3181  10.5545  3.605233
  14083.632  14083.620  0.500  1.230964  36.2438  10.5836  3.623778
  14098.764  14098.800  0.500  1.226013  36.2058  10.625  3.649007
  14114.147  14114.160  0.500  1.220922  35.9853  10.6142  3.656637
  14129.694  14129.690  0.500  1.215685  36.0024  10.675  3.689080
  14145.407  14145.390  0.500  1.210593  35.8503  10.6841  3.701993
  14161.278  14161.260  0.500  1.205443  35.6118  10.6678  3.708548
  14177.361  14177.310  0.500  1.200246  35.628  10.7283  3.740761
  14193.551  14193.520  0.500  1.195008  35.4733  10.7378  3.755233
  14209.920  14209.910  0.500  1.189672  35.3242  10.7499  3.771674
  14226.504  14226.470  0.500  1.184217  35.1774  10.7638  3.788552
  14243.260  14243.200  0.500  1.178828  35.0231  10.7745  3.802898
  14260.136  14260.100  0.500  1.173411  34.846  10.7782  3.816413
  14271.487  14271.460  0.500  1.169730  32.421  10.0651  3.571318