File: xdidata/Data/Yb/Yb-L3-YtterbiumOxide.xdi
# XDI/1.0 BlueSky/1.10.0 BMM/2023-1.0-py310-tiled
# Beamline.name: BMM (06BM) -- Beamline for Materials Measurement (NIST)
# Beamline.xray_source: NSLS-II three-pole wiggler
# Beamline.collimation: paraboloid mirror, 5 nm Rh on 30 nm Pt
# Beamline.focusing: not in use
# Beamline.harmonic_rejection: flat mirror, Pt stripe, pitch = 7.0 mrad relative to beam
# Beamline.software: Bluesky 1.10.0, Ophyd 1.7.0, DataBroker 2.0.0b13, Python 3.10.8, 2023-1.0-py310-tiled
# Detector.I0: 10 cm N2
# Detector.I1: 25 cm N2
# Detector.I2: 25 cm N2
# Element.symbol: Yb
# Element.edge: L3
# Element.reference: Yb
# Element.reference_material: Yb2O3
# Facility.name: NSLS-II
# Facility.energy: 3.0
# Facility.current: 398.8
# Facility.mode: top-off
# Facility.GUP: 301027
# Facility.SAF: 310583
# Facility.cycle: 2023-2
# Mono.name: Si(111)
# Mono.d_spacing: 3.13519
# Mono.encoder_resolution: 0.0000050 deg/ct
# Mono.angle_offset: 16.0754 deg
# Mono.scan_mode: pseudo channel cut
# Mono.scan_type: step
# Mono.direction: forward in energy
# Sample.name: Yb2O3
# Sample.prep: PEG pellet
# Sample.x: 109.138 mm
# Sample.y: 153.150 mm
# Sample.SDD_position: 205.000 mm
# Scan.experimenters: Bruce Ravel
# Scan.edge_energy: 8943.6
# Scan.start_time: 2023-05-28T15:49:33
# Scan.end_time: 2023-05-28T15:57:37
# Scan.transient_id: 78812
# Scan.uid: 2be40b9f-a1fb-42f0-8736-52bc1fdddaac
# Scan.plot_hint: ln(It/Ir)  --  ln($6/$7)
# Column.1: energy eV
# Column.2: requested_energy eV
# Column.3: measurement_time seconds
# Column.4: xmu
# Column.5: I0 nA
# Column.6: It nA
# Column.7: Ir nA
# ///////////
# sample courtesy Martin Stennett, University of Sheffield
# -----------
# energy  requested_energy  measurement_time  xmu  I0  It  Ir
  8743.613  8743.600  0.500  1.441573  123.716  167.823  39.6994
  8773.647  8773.600  0.500  1.427603  123.598  168.267  40.3646
  8803.627  8803.600  0.500  1.413599  123.023  168.118  40.8974
  8833.620  8833.600  0.500  1.399935  122.448  167.98  41.4261
  8863.618  8863.600  0.500  1.386842  121.886  167.757  41.9164
  8893.617  8893.600  0.500  1.375085  121.307  167.598  42.3717
  8915.567  8915.600  0.500  1.370849  120.819  167.317  42.4804
  8921.571  8921.600  0.500  1.372478  120.76  167.356  42.4211
  8927.652  8927.600  0.500  1.377932  120.704  167.418  42.2059
  8933.584  8933.600  0.500  1.394858  120.586  167.369  41.4854
  8934.474  8934.500  0.500  1.400279  120.546  167.341  41.2542
  8935.381  8935.400  0.500  1.407127  120.491  167.293  40.9611
  8936.278  8936.300  0.500  1.415426  120.203  166.898  40.5265
  8937.178  8937.200  0.500  1.424018  120.209  166.912  40.1833
  8938.086  8938.100  0.500  1.432434  120.385  167.15  39.9031
  8938.977  8939.000  0.500  1.442421  120.37  167.202  39.519
  8939.888  8939.900  0.500  1.457088  120.345  167.144  38.93
  8940.783  8940.800  0.500  1.477846  120.332  167.157  38.1332
  8941.694  8941.700  0.500  1.508075  120.3  167.138  36.9936
  8942.586  8942.600  0.500  1.548940  120.28  167.129  35.5104
  8943.501  8943.500  0.500  1.610887  120.255  167.09  33.3696
  8944.390  8944.400  0.500  1.701608  120.221  167.081  30.474
  8945.292  8945.300  0.500  1.832612  120.205  167.082  26.7323
  8946.191  8946.200  0.500  2.005799  120.183  167.048  22.4768
  8947.097  8947.100  0.500  2.208639  120.148  167.023  18.3475
  8947.990  8948.000  0.500  2.372120  120.125  166.99  15.5773
  8948.896  8948.900  0.500  2.460434  120.1  167  14.2614
  8949.799  8949.800  0.500  2.503105  120.073  166.973  13.6635
  8950.703  8950.700  0.500  2.510701  120.045  166.955  13.5586
  8951.603  8951.600  0.500  2.455697  119.994  166.863  14.3174
  8952.489  8952.500  0.500  2.339358  119.717  166.504  16.0493
  8953.393  8953.400  0.500  2.195315  119.79  166.63  18.5498
  8954.294  8954.300  0.500  2.063113  119.935  166.84  21.1983
  8955.209  8955.200  0.500  1.960378  119.909  166.837  23.4915
  8956.103  8956.100  0.500  1.894116  119.896  166.856  25.1037
  8957.008  8957.000  0.500  1.847950  119.867  166.827  26.2852
  8957.899  8957.900  0.500  1.814834  119.853  166.834  27.1714
  8958.804  8958.800  0.500  1.790067  119.831  166.781  27.8438
  8959.688  8959.700  0.500  1.772688  119.812  166.802  28.3357
  8960.601  8960.600  0.500  1.759841  119.789  166.776  28.6975
  8961.496  8961.500  0.500  1.750988  119.77  166.788  28.9548
  8962.412  8962.400  0.500  1.745222  119.743  166.776  29.1202
  8963.301  8963.300  0.500  1.743581  119.721  166.736  29.1609
  8964.207  8964.200  0.500  1.745990  119.69  166.714  29.0869
  8965.096  8965.100  0.500  1.750782  120.024  167.212  29.0344
  8965.999  8966.000  0.500  1.755605  119.807  166.909  28.8423
  8966.896  8966.900  0.500  1.758343  119.977  167.183  28.8106
  8967.796  8967.800  0.500  1.758908  120.047  167.276  28.8104
  8968.602  8968.600  0.500  1.757551  120.024  167.282  28.8507
  8971.630  8971.610  0.500  1.741920  119.971  167.247  29.299
  8974.801  8974.800  0.500  1.741333  119.901  167.197  29.3073
  8978.177  8978.160  0.500  1.770730  119.822  167.17  28.4537
  8981.690  8981.680  0.500  1.808253  119.699  167.045  27.3855
  8985.376  8985.380  0.500  1.849169  119.616  167.007  26.2816
  8989.257  8989.250  0.500  1.848919  119.528  166.97  26.2822
  8993.312  8993.300  0.500  1.814589  119.235  166.621  27.1433
  8997.517  8997.510  0.500  1.786234  119.367  166.887  27.9687
  9001.894  9001.890  0.500  1.769343  119.113  166.624  28.4002
  9006.460  9006.450  0.500  1.756028  119.193  166.814  28.8137
  9011.198  9011.180  0.500  1.748948  117.012  163.858  28.5043
  9016.089  9016.080  0.500  1.746118  119.014  166.747  29.0889
  9021.164  9021.150  0.500  1.750369  116.512  163.319  28.3701
  9026.395  9026.390  0.500  1.760974  118.848  166.684  28.6492
  9031.816  9031.810  0.500  1.770802  118.726  166.645  28.3624
  9037.394  9037.390  0.500  1.773572  118.604  166.54  28.2661
  9043.170  9043.150  0.500  1.771122  117.936  165.726  28.197
  9049.080  9049.080  0.500  1.769476  118.323  166.379  28.3547
  9055.185  9055.180  0.500  1.764932  118.2  166.307  28.4715
  9061.458  9061.450  0.500  1.760465  118.073  166.246  28.5885
  9067.903  9067.890  0.500  1.756089  117.923  166.175  28.7015
  9074.510  9074.500  0.500  1.744988  117.816  166.106  29.0099
  9081.300  9081.290  0.500  1.731681  116.94  165.011  29.2048
  9088.258  9088.250  0.500  1.727261  117.501  165.916  29.495
  9095.394  9095.370  0.500  1.732208  117.365  165.849  29.3376
  9102.698  9102.670  0.500  1.734670  117.202  165.769  29.2513
  9110.165  9110.150  0.500  1.739942  117.026  165.663  29.0789
  9117.802  9117.790  0.500  1.742218  116.874  165.574  28.9972
  9125.620  9125.600  0.500  1.731237  116.699  165.473  29.2996
  9133.604  9133.590  0.500  1.719991  116.507  165.345  29.608
  9141.764  9141.750  0.500  1.715817  116.206  165.043  29.6775
  9150.083  9150.070  0.500  1.715571  116.201  165.168  29.7073
  9158.591  9158.570  0.500  1.715052  113.13  160.954  28.9644
  9167.270  9167.250  0.500  1.710900  115.504  164.479  29.7218
  9176.105  9176.090  0.500  1.701288  115.684  164.9  30.0857
  9185.125  9185.100  0.500  1.695038  115.59  164.93  30.2799
  9194.315  9194.290  0.500  1.693779  115.271  164.643  30.2653
  9203.671  9203.650  0.500  1.693166  114.995  164.378  30.235
  9213.203  9213.170  0.500  1.691704  114.783  164.251  30.256
  9222.895  9222.870  0.500  1.687513  114.553  164.068  30.3491
  9232.770  9232.750  0.500  1.681924  114.327  163.918  30.4913
  9242.814  9242.790  0.500  1.674545  114.1  163.76  30.6876
  9253.031  9253.000  0.500  1.667927  113.881  163.594  30.86
  9263.397  9263.390  0.500  1.664552  113.64  163.421  30.9315
  9273.969  9273.950  0.500  1.661283  113.4  163.249  31.0003
  9284.711  9284.680  0.500  1.655297  113.186  163.118  31.1613
  9295.615  9295.580  0.500  1.649721  112.923  162.915  31.2965
  9306.666  9306.650  0.500  1.645240  112.154  162.011  31.2627
  9317.897  9317.890  0.500  1.640443  112.469  162.598  31.5268
  9329.325  9329.310  0.500  1.635308  112.212  162.427  31.6558
  9340.906  9340.890  0.500  1.631383  112.335  162.776  31.8485
  9352.675  9352.650  0.500  1.626720  112.071  162.576  31.9581
  9364.595  9364.580  0.500  1.620935  111.797  162.394  32.1075
  9376.702  9376.680  0.500  1.614475  111.528  162.186  32.2742
  9388.970  9388.950  0.500  1.607954  111.239  161.934  32.435
  9401.412  9401.390  0.500  1.601078  110.965  161.723  32.6162
  9414.026  9414.010  0.500  1.596619  110.65  161.477  32.712
  9426.804  9426.790  0.500  1.593169  110.36  161.25  32.7789
  9439.765  9439.750  0.500  1.587514  110.02  160.958  32.9051
  9452.896  9452.880  0.500  1.580844  109.714  160.708  33.0738
  9466.189  9466.180  0.500  1.574211  109.406  160.421  33.2345
  9479.664  9479.650  0.500  1.567622  109.094  160.18  33.4041
  9493.315  9493.300  0.500  1.561486  108.785  159.896  33.5501
  9507.122  9507.110  0.500  1.557461  108.44  159.621  33.6274
  9521.120  9521.100  0.500  1.552667  108.104  159.331  33.7275
  9535.285  9535.260  0.500  1.545041  107.776  159.039  33.9236
  9549.615  9549.590  0.500  1.536572  107.421  158.736  34.1468
  9564.109  9564.090  0.500  1.529962  107.096  158.447  34.3108
  9578.789  9578.760  0.500  1.524442  106.744  158.099  34.4248
  9593.616  9593.600  0.500  1.519878  106.393  157.814  34.52
  9608.640  9608.620  0.500  1.514354  106.029  157.477  34.6372
  9623.826  9623.800  0.500  1.507431  105.675  157.163  34.8081
  9639.180  9639.160  0.500  1.499181  105.306  156.792  35.0137
  9654.718  9654.690  0.500  1.492034  104.931  156.428  35.183
  9670.420  9670.390  0.500  1.485825  104.514  156.007  35.3068
  9686.283  9686.260  0.500  1.480239  104.164  155.725  35.4404
  9702.347  9702.310  0.500  1.474585  103.757  155.317  35.548
  9718.550  9718.520  0.500  1.467196  103.382  154.956  35.7284
  9734.940  9734.910  0.500  1.459452  102.971  154.565  35.9152
  9751.494  9751.470  0.500  1.452025  102.584  154.171  36.0908
  9768.220  9768.200  0.500  1.445348  102.133  153.724  36.2272
  9785.130  9785.100  0.500  1.439401  100.937  152.127  36.0647
  9796.496  9796.460  0.500  1.435126  101.501  153.103  36.4517