File: xdidata/Tm/Tm-L3-ThuliumOxide.xdi
# XDI/1.0 BlueSky/1.10.0 BMM/2023-1.0-py310-tiled
# Beamline.name: BMM (06BM) -- Beamline for Materials Measurement (NIST)
# Beamline.xray_source: NSLS-II three-pole wiggler
# Beamline.collimation: paraboloid mirror, 5 nm Rh on 30 nm Pt
# Beamline.focusing: not in use
# Beamline.harmonic_rejection: flat mirror, Pt stripe, pitch = 7.0 mrad relative to beam
# Beamline.software: Bluesky 1.10.0, Ophyd 1.7.0, DataBroker 2.0.0b13, Python 3.10.8, 2023-1.0-py310-tiled
# Detector.I0: 10 cm N2
# Detector.I1: 25 cm N2
# Detector.I2: 25 cm N2
# Element.symbol: Tm
# Element.edge: L3
# Element.reference: Tm
# Element.reference_material: Tm2O3
# Facility.name: NSLS-II
# Facility.energy: 3.0
# Facility.current: 399.8
# Facility.mode: top-off
# Facility.GUP: 301027
# Facility.SAF: 310583
# Facility.cycle: 2023-2
# Mono.name: Si(111)
# Mono.d_spacing: 3.13519
# Mono.encoder_resolution: 0.0000050 deg/ct
# Mono.angle_offset: 16.0754 deg
# Mono.scan_mode: pseudo channel cut
# Mono.scan_type: step
# Mono.direction: forward in energy
# Sample.name: Tm2O3
# Sample.prep: PEG pellet
# Sample.x: 109.138 mm
# Sample.y: 153.150 mm
# Sample.SDD_position: 205.000 mm
# Scan.experimenters: Bruce Ravel
# Scan.edge_energy: 8648.0
# Scan.start_time: 2023-05-28T15:27:34
# Scan.end_time: 2023-05-28T15:35:25
# Scan.transient_id: 78798
# Scan.uid: e37d4afe-9b5a-4170-81b1-206b9feb7c5a
# Scan.plot_hint: ln(It/Ir)  --  ln($6/$7)
# Column.1: energy eV
# Column.2: requested_energy eV
# Column.3: measurement_time seconds
# Column.4: xmu
# Column.5: I0 nA
# Column.6: It nA
# Column.7: Ir nA
# ///////////
# sample courtesy Martin Stennett, University of Sheffield
# -----------
# energy  requested_energy  measurement_time  xmu  I0  It  Ir
  8448.010  8448.000  0.500  1.100523  129.829  169.135  56.2708
  8478.062  8478.000  0.500  1.089489  129.311  169.184  56.9114
  8508.044  8508.000  0.500  1.078794  128.757  169.205  57.5305
  8538.050  8538.000  0.500  1.067903  128.075  169.034  58.1019
  8568.029  8568.000  0.500  1.057685  127.623  169.14  58.7353
  8598.019  8598.000  0.500  1.048617  126.798  168.722  59.124
  8619.970  8620.000  0.500  1.045323  123.132  164.335  57.7765
  8625.978  8626.000  0.500  1.041999  127.39  170.141  60.0171
  8631.998  8632.000  0.500  1.045220  126.934  169.696  59.6674
  8637.995  8638.000  0.500  1.056014  126.908  169.812  59.0673
  8638.870  8638.900  0.500  1.059521  126.789  169.611  58.791
  8639.777  8639.800  0.500  1.063876  126.592  169.41  58.4661
  8640.679  8640.700  0.500  1.069698  126.271  169.006  57.9882
  8641.583  8641.600  0.500  1.077116  125.525  168.028  57.2265
  8642.495  8642.500  0.500  1.083811  122.509  164.012  55.4859
  8643.390  8643.400  0.500  1.088466  113.278  151.657  51.0678
  8644.292  8644.300  0.500  1.103280  111.964  149.923  49.7415
  8645.188  8645.200  0.500  1.118375  121.137  162.214  53.0133
  8646.087  8646.100  0.500  1.134758  125.563  168.179  54.0695
  8646.996  8647.000  0.500  1.162659  126.39  169.295  52.9307
  8647.896  8647.900  0.500  1.204854  126.614  169.617  50.8402
  8648.799  8648.800  0.500  1.267825  126.679  169.725  47.7678
  8649.699  8649.700  0.500  1.350827  126.686  169.758  43.9716
  8650.596  8650.600  0.500  1.451945  126.688  169.796  39.7516
  8651.496  8651.500  0.500  1.549019  126.679  169.809  36.0769
  8652.387  8652.400  0.500  1.611327  126.659  169.794  33.8948
  8653.294  8653.300  0.500  1.642731  126.638  169.781  32.8442
  8654.205  8654.200  0.500  1.658059  126.604  169.751  32.339
  8655.103  8655.100  0.500  1.651574  126.592  169.768  32.5527
  8656.007  8656.000  0.500  1.614196  126.563  169.73  33.7848
  8656.893  8656.900  0.500  1.553681  126.527  169.696  35.8853
  8657.804  8657.800  0.500  1.482011  126.5  169.714  38.5558
  8658.693  8658.700  0.500  1.420156  126.479  169.691  41.0103
  8659.602  8659.600  0.500  1.373590  126.454  169.664  42.9582
  8660.507  8660.500  0.500  1.340798  126.428  169.652  44.3873
  8661.400  8661.400  0.500  1.318380  126.401  169.631  45.3878
  8662.303  8662.300  0.500  1.302245  126.368  169.588  46.1144
  8663.199  8663.200  0.500  1.290206  126.335  169.595  46.675
  8664.096  8664.100  0.500  1.281352  126.331  169.605  47.0927
  8664.996  8665.000  0.500  1.274680  126.293  169.538  47.3892
  8665.893  8665.900  0.500  1.270606  126.282  169.559  47.5888
  8666.806  8666.800  0.500  1.268204  126.251  169.546  47.6994
  8667.700  8667.700  0.500  1.268125  126.227  169.52  47.696
  8668.607  8668.600  0.500  1.270189  126.2  169.539  47.6029
  8669.499  8669.500  0.500  1.272689  126.165  169.486  47.4693
  8670.390  8670.400  0.500  1.275128  126.155  169.504  47.3585
  8671.291  8671.300  0.500  1.275974  126.113  169.461  47.3065
  8672.190  8672.200  0.500  1.275540  126.093  169.439  47.3209
  8673.011  8673.000  0.500  1.274034  126.072  169.433  47.3906
  8676.021  8676.010  0.500  1.264213  126.007  169.429  47.857
  8679.218  8679.200  0.500  1.266294  125.926  169.4  47.7496
  8682.570  8682.560  0.500  1.283616  125.846  169.346  46.9145
  8686.080  8686.080  0.500  1.305800  125.758  169.304  45.8739
  8689.798  8689.780  0.500  1.327071  125.652  169.254  44.8951
  8693.668  8693.650  0.500  1.322880  125.565  169.221  45.075
  8697.707  8697.700  0.500  1.303131  125.45  169.156  45.9562
  8701.913  8701.910  0.500  1.288566  125.24  168.976  46.581
  8706.290  8706.290  0.500  1.278630  123.724  167.031  46.5046
  8710.863  8710.850  0.500  1.270874  124.367  167.944  47.1228
  8715.595  8715.580  0.500  1.266640  125.095  169.049  47.634
  8720.498  8720.480  0.500  1.265093  125.026  169.051  47.7083
  8725.571  8725.550  0.500  1.267812  124.935  169.037  47.575
  8730.811  8730.790  0.500  1.273883  125.194  169.498  47.4158
  8736.228  8736.210  0.500  1.278585  125.099  169.507  47.196
  8741.809  8741.790  0.500  1.279238  124.998  169.488  47.16
  8747.556  8747.550  0.500  1.277180  124.848  169.387  47.2289
  8753.481  8753.480  0.500  1.275895  124.724  169.385  47.2892
  8759.583  8759.580  0.500  1.272882  124.593  169.33  47.4163
  8765.863  8765.850  0.500  1.270222  124.434  169.241  47.5178
  8772.297  8772.290  0.500  1.267162  124.304  169.214  47.6557
  8778.913  8778.900  0.500  1.259552  124.164  169.149  48.0014
  8785.702  8785.690  0.500  1.251104  123.987  169.074  48.3871
  8792.672  8792.650  0.500  1.249772  123.815  168.984  48.4257
  8799.759  8799.770  0.500  1.251629  123.62  168.822  48.2895
  8807.082  8807.070  0.500  1.252834  123.482  168.794  48.2234
  8814.554  8814.550  0.500  1.256075  123.31  168.698  48.0402
  8822.203  8822.190  0.500  1.255530  123.153  168.666  48.0572
  8830.017  8830.000  0.500  1.247059  122.954  168.574  48.4394
  8838.003  8837.990  0.500  1.241143  122.79  168.505  48.707
  8846.162  8846.150  0.500  1.239669  122.615  168.415  48.7527
  8854.481  8854.470  0.500  1.238936  122.443  168.338  48.7661
  8862.986  8862.970  0.500  1.237607  122.216  168.217  48.796
  8871.669  8871.650  0.500  1.233348  122.02  168.12  48.9761
  8880.510  8880.490  0.500  1.227419  121.809  168.006  49.2337
  8889.518  8889.500  0.500  1.224358  121.603  167.913  49.3575
  8898.702  8898.690  0.500  1.223145  121.373  167.743  49.3673
  8908.069  8908.050  0.500  1.222013  121.085  167.587  49.3772
  8917.586  8917.570  0.500  1.219692  119.935  166.155  49.0692
  8927.289  8927.270  0.500  1.217185  120.763  167.491  49.5878
  8937.168  8937.150  0.500  1.213139  120.327  167.053  49.6586
  8947.214  8947.190  0.500  1.207823  120.288  167.225  49.9747
  8957.415  8957.400  0.500  1.204106  120.019  167.046  50.1072
  8967.806  8967.790  0.500  1.202063  119.777  166.902  50.1664
  8978.378  8978.350  0.500  1.199010  119.52  166.737  50.27
  8989.101  8989.080  0.500  1.194498  119.197  166.458  50.4127
  8999.999  8999.980  0.500  1.190796  118.899  166.285  50.5472
  9011.069  9011.050  0.500  1.186734  116.945  163.713  49.968
  9022.310  9022.290  0.500  1.184991  118.051  165.48  50.5955
  9033.731  9033.710  0.500  1.180859  118.199  165.923  50.9409
  9045.315  9045.290  0.500  1.177889  117.857  165.645  51.0066
  9057.068  9057.050  0.500  1.174250  117.587  165.507  51.1502
  9069.001  9068.980  0.500  1.170028  117.242  165.216  51.2762
  9081.105  9081.080  0.500  1.165400  116.543  164.455  51.2766
  9093.374  9093.350  0.500  1.160999  116.641  164.816  51.6159
  9105.808  9105.790  0.500  1.156805  116.171  164.349  51.6859
  9118.425  9118.410  0.500  1.153926  116.008  164.344  51.8334
  9131.207  9131.190  0.500  1.150904  115.67  164.115  51.918
  9144.170  9144.150  0.500  1.145924  113.907  161.809  51.4439
  9157.304  9157.280  0.500  1.140724  113.634  161.669  51.6674
  9170.596  9170.580  0.500  1.137476  114.729  163.411  52.3941
  9184.056  9184.050  0.500  1.133511  114.21  162.928  52.4466
  9197.716  9197.700  0.500  1.128720  114.07  162.967  52.7111
  9211.528  9211.510  0.500  1.126051  113.692  162.658  52.752
  9225.514  9225.500  0.500  1.121667  113.32  162.327  52.8757
  9239.680  9239.660  0.500  1.116068  112.964  162.054  53.0833
  9254.002  9253.990  0.500  1.110554  112.751  161.978  53.3518
  9268.495  9268.490  0.500  1.106032  112.614  162.035  53.6124
  9283.176  9283.160  0.500  1.102539  112.282  161.802  53.7227
  9298.020  9298.000  0.500  1.098616  111.761  161.257  53.752
  9313.043  9313.020  0.500  1.094701  111.56  161.233  53.9549
  9328.229  9328.200  0.500  1.089438  111.2  160.95  54.1444
  9343.575  9343.560  0.500  1.083877  110.779  160.585  54.3228
  9359.109  9359.090  0.500  1.079192  110.376  160.239  54.4603
  9374.824  9374.790  0.500  1.074674  109.959  159.883  54.5855
  9390.723  9390.660  0.500  1.070698  109.541  159.479  54.6644
  9406.743  9406.710  0.500  1.066383  109.169  159.203  54.8058
  9422.956  9422.920  0.500  1.060870  108.74  158.81  54.9726
  9439.342  9439.310  0.500  1.055744  108.252  158.341  55.0922
  9455.956  9455.870  0.500  1.050497  107.839  157.99  55.2591
  9472.668  9472.600  0.500  1.045851  107.411  157.594  55.3775
  9489.578  9489.500  0.500  1.041490  106.985  157.2  55.4805
  9500.856  9500.860  0.500  1.038222  106.67  156.9  55.5556