File: xdidata/Tm/Tm-L1-Tm2TiO5.xdi
# XDI/1.0 BlueSky/1.10.0 BMM/2023-1.0-py310-tiled
# Beamline.name: BMM (06BM) -- Beamline for Materials Measurement (NIST)
# Beamline.xray_source: NSLS-II three-pole wiggler
# Beamline.collimation: paraboloid mirror, 5 nm Rh on 30 nm Pt
# Beamline.focusing: not in use
# Beamline.harmonic_rejection: flat mirror, Pt stripe, pitch = 7.0 mrad relative to beam
# Beamline.software: Bluesky 1.10.0, Ophyd 1.7.0, DataBroker 2.0.0b13, Python 3.10.8, 2023-1.0-py310-tiled
# Detector.I0: 10 cm N2
# Detector.I1: 25 cm N2
# Detector.I2: 25 cm N2
# Element.symbol: Tm
# Element.edge: L1
# Element.reference: Tm
# Element.reference_material: Tm2O3
# Facility.name: NSLS-II
# Facility.energy: 3.0
# Facility.current: 399.4
# Facility.mode: top-off
# Facility.GUP: 123456
# Facility.SAF: 301027
# Facility.cycle: 2023-2
# Mono.name: Si(111)
# Mono.d_spacing: 3.13519
# Mono.encoder_resolution: 0.0000050 deg/ct
# Mono.angle_offset: 16.0754 deg
# Mono.scan_mode: pseudo channel cut
# Mono.scan_type: step
# Mono.direction: forward in energy
# Sample.name: Tm2TiO5
# Sample.prep: Powder in PEG pellet
# Sample.x: 149.848 mm
# Sample.y: 114.690 mm
# Sample.SDD_position: 205.000 mm
# Scan.experimenters: Bruce Ravel
# Scan.edge_energy: 10115.7
# Scan.start_time: 2023-05-08T22:54:04
# Scan.end_time: 2023-05-08T22:59:43
# Scan.transient_id: 75697
# Scan.uid: 3307debb-dae3-425b-bae1-f86f10d0a1ce
# Scan.plot_hint: ln(I0/It)  --  ln($5/$6)
# Column.1: energy eV
# Column.2: requested_energy eV
# Column.3: measurement_time seconds
# Column.4: xmu
# Column.5: I0 nA
# Column.6: It nA
# Column.7: Ir nA
# ///////////
# sample courtesy Martin Stennett, University of Sheffield
# -----------
# energy  requested_energy  measurement_time  xmu  I0  It  Ir
  9915.746  9915.700  0.500  0.170888  97.2597  81.9817  27.977
  9935.739  9935.700  0.500  0.167086  97.2698  82.3026  28.2164
  9955.732  9955.700  0.500  0.163463  96.676  82.0971  28.2948
  9975.734  9975.700  0.500  0.159712  96.5119  82.2658  28.4862
  9995.728  9995.700  0.500  0.155985  95.9624  82.1028  28.5715
  10015.735  10015.700  0.500  0.151647  94.5673  81.2608  28.4005
  10035.727  10035.700  0.500  0.147731  92.6937  79.9634  28.0858
  10055.731  10055.700  0.500  0.144113  95.0139  82.2621  29.052
  10075.729  10075.700  0.500  0.140559  94.6225  82.2149  29.1734
  10087.684  10087.700  0.500  0.138488  93.6876  81.5714  28.988
  10091.681  10091.700  0.500  0.137805  94.1518  82.0316  29.1684
  10095.675  10095.700  0.500  0.137250  94.1734  82.0958  29.2016
  10099.682  10099.700  0.500  0.136545  94.1061  82.0951  29.2152
  10103.679  10103.700  0.500  0.135892  94.033  82.0849  29.2173
  10106.167  10106.200  0.500  0.135373  93.9888  82.0889  29.217
  10107.175  10107.200  0.500  0.135237  93.9581  82.0732  29.2102
  10108.175  10108.200  0.500  0.135133  93.939  82.0651  29.2039
  10109.174  10109.200  0.500  0.135067  93.921  82.0548  29.1951
  10110.170  10110.200  0.500  0.134929  93.8998  82.0475  29.1819
  10111.170  10111.200  0.500  0.134706  93.8642  82.0348  29.1665
  10112.165  10112.200  0.500  0.134650  93.8433  82.0211  29.1487
  10113.179  10113.200  0.500  0.134513  93.8201  82.0121  29.1239
  10114.184  10114.200  0.500  0.134521  93.7995  81.9934  29.0837
  10115.193  10115.200  0.500  0.134489  93.7693  81.9696  29.0226
  10116.181  10116.200  0.500  0.134590  93.7515  81.9457  28.935
  10117.187  10117.200  0.500  0.134576  93.7231  81.9221  28.824
  10118.179  10118.200  0.500  0.134751  93.6934  81.8818  28.7028
  10119.181  10119.200  0.500  0.134961  93.6718  81.8457  28.5836
  10120.196  10120.200  0.500  0.135046  93.6482  81.8182  28.4705
  10121.193  10121.200  0.500  0.135270  93.6248  81.7795  28.3562
  10122.196  10122.200  0.500  0.135277  93.5985  81.7558  28.2425
  10123.193  10123.200  0.500  0.135544  93.5711  81.7101  28.1195
  10124.187  10124.200  0.500  0.135650  93.5452  81.6788  27.9903
  10125.194  10125.200  0.500  0.136020  93.5133  81.6208  27.8424
  10126.193  10126.200  0.500  0.135994  93.4873  81.6002  27.6921
  10127.196  10127.200  0.500  0.136417  93.4789  81.5583  27.5145
  10128.199  10128.200  0.500  0.136704  93.4511  81.5107  27.3076
  10129.199  10129.200  0.500  0.137071  93.4329  81.4649  27.1047
  10130.193  10130.200  0.500  0.137417  93.41  81.4167  26.947
  10131.197  10131.200  0.500  0.137523  93.3798  81.3818  26.8581
  10132.197  10132.200  0.500  0.137391  93.3629  81.3778  26.8477
  10133.193  10133.200  0.500  0.137198  93.3445  81.3775  26.8791
  10134.202  10134.200  0.500  0.136851  93.2961  81.3636  26.9246
  10135.207  10135.200  0.500  0.136569  93.2327  81.3312  26.9447
  10136.203  10136.200  0.500  0.136318  93.2425  81.3602  26.9622
  10137.199  10137.200  0.500  0.136109  93.2374  81.3727  26.9598
  10138.195  10138.200  0.500  0.135789  93.214  81.3784  26.9471
  10139.188  10139.200  0.500  0.135521  93.1896  81.3788  26.9356
  10140.194  10140.200  0.500  0.135254  93.1701  81.3835  26.9397
  10141.707  10141.690  0.500  0.134938  93.1347  81.3783  26.9607
  10143.711  10143.710  0.500  0.134402  93.0897  81.3826  27.0399
  10145.836  10145.820  0.500  0.134052  93.0476  81.3742  27.1644
  10148.020  10148.000  0.500  0.133448  93.0007  81.3824  27.3085
  10150.263  10150.260  0.500  0.132814  92.9568  81.3955  27.4491
  10152.600  10152.590  0.500  0.132175  92.9109  81.4074  27.5756
  10155.019  10155.000  0.500  0.131623  92.8638  81.4111  27.659
  10157.493  10157.480  0.500  0.131139  92.8074  81.401  27.6953
  10160.053  10160.040  0.500  0.130628  92.7546  81.3963  27.7088
  10162.690  10162.680  0.500  0.130242  92.7045  81.3837  27.6971
  10165.409  10165.400  0.500  0.129908  92.6233  81.3396  27.6664
  10168.197  10168.190  0.500  0.129627  92.585  81.3288  27.6462
  10171.067  10171.050  0.500  0.129177  92.5372  81.3233  27.6199
  10174.010  10173.990  0.500  0.128885  92.4783  81.2954  27.5695
  10177.014  10177.010  0.500  0.128534  92.4076  81.2618  27.514
  10180.122  10180.110  0.500  0.128086  92.3369  81.2359  27.4603
  10183.286  10183.280  0.500  0.127460  92.2725  81.2301  27.4057
  10186.542  10186.530  0.500  0.126790  92.2107  81.2301  27.3773
  10189.854  10189.850  0.500  0.126412  92.1375  81.1964  27.3779
  10193.259  10193.250  0.500  0.125909  91.9684  81.0881  27.3909
  10196.733  10196.730  0.500  0.125148  92.0021  81.1795  27.5067
  10200.277  10200.280  0.500  0.124471  91.928  81.1691  27.6075
  10203.922  10203.910  0.500  0.123858  91.8434  81.1441  27.6817
  10207.607  10207.610  0.500  0.123066  91.7488  81.1248  27.7176
  10211.384  10211.390  0.500  0.122414  91.6741  81.1116  27.7364
  10215.264  10215.250  0.500  0.121756  91.596  81.0959  27.7467
  10219.179  10219.180  0.500  0.121127  91.5117  81.0722  27.7632
  10223.196  10223.190  0.500  0.120302  91.4399  81.0755  27.8075
  10227.284  10227.280  0.500  0.119744  91.3515  81.0422  27.841
  10231.439  10231.440  0.500  0.118911  91.2786  81.0451  27.8826
  10235.693  10235.680  0.500  0.118144  91.1741  81.0144  27.9118
  10240.009  10239.990  0.500  0.117512  91.0326  80.9397  27.9182
  10244.393  10244.380  0.500  0.116721  91.0171  80.99  27.9419
  10248.862  10248.850  0.500  0.116162  90.9231  80.9516  27.9246
  10253.399  10253.390  0.500  0.115421  90.8361  80.9342  27.9013
  10258.013  10258.010  0.500  0.114707  90.7372  80.9037  27.8821
  10262.709  10262.700  0.500  0.113845  90.9797  81.1899  28.0028
  10267.483  10267.470  0.500  0.113098  90.8792  81.1609  28.0334
  10272.324  10272.320  0.500  0.112243  90.7752  81.1373  28.0584
  10277.262  10277.250  0.500  0.111439  90.4251  80.8894  28.0209
  10282.274  10282.250  0.500  0.110497  90.5886  81.112  28.1681
  10287.336  10287.320  0.500  0.109637  90.4961  81.0989  28.2442
  10292.486  10292.470  0.500  0.108722  90.3733  81.0631  28.2959
  10297.729  10297.700  0.500  0.107964  90.2743  81.0356  28.318
  10303.050  10303.010  0.500  0.107143  90.1608  81.0002  28.325
  10308.414  10308.390  0.500  0.106251  90.0577  80.9797  28.3411
  10313.867  10313.850  0.500  0.105324  89.9419  80.9507  28.3644
  10319.404  10319.380  0.500  0.104391  89.8131  80.9102  28.3901
  10325.021  10324.990  0.500  0.103555  89.7219  80.8956  28.4299
  10330.699  10330.670  0.500  0.102555  89.5913  80.8586  28.4673
  10336.449  10336.440  0.500  0.101666  89.474  80.8247  28.5051
  10342.275  10342.270  0.500  0.100670  89.3519  80.7948  28.5287
  10348.223  10348.190  0.500  0.099700  89.2318  80.7645  28.5403
  10354.211  10354.180  0.500  0.098757  89.1042  80.725  28.5443
  10360.280  10360.250  0.500  0.097818  88.9891  80.6965  28.5571
  10366.413  10366.390  0.500  0.096972  88.8421  80.6314  28.5751
  10372.637  10372.610  0.500  0.095883  88.7016  80.5916  28.6064
  10378.924  10378.900  0.500  0.094927  88.5592  80.5392  28.6396
  10385.294  10385.270  0.500  0.093800  88.4338  80.5158  28.6916
  10391.756  10391.720  0.500  0.092736  88.2884  80.469  28.7329
  10398.283  10398.250  0.500  0.091660  88.1472  80.4268  28.771
  10404.893  10404.850  0.500  0.090592  88.0232  80.3995  28.8132
  10411.549  10411.520  0.500  0.089653  87.8802  80.3443  28.8458
  10418.298  10418.270  0.500  0.088442  87.7386  80.3121  28.8693
  10425.127  10425.100  0.500  0.087524  87.6127  80.2705  28.8936
  10432.050  10432.010  0.500  0.086366  87.4694  80.2321  28.923
  10439.021  10438.990  0.500  0.085312  87.318  80.1777  28.9501
  10446.076  10446.050  0.500  0.084270  87.1735  80.1284  28.9831
  10453.207  10453.180  0.500  0.083052  87.0199  80.0846  29.0095
  10460.429  10460.390  0.500  0.082159  86.8787  80.0262  29.0315
  10467.709  10467.680  0.500  0.080937  86.7203  79.978  29.0604
  10475.065  10475.040  0.500  0.079733  86.5609  79.9271  29.0951
  10482.518  10482.480  0.500  0.078609  86.4099  79.8774  29.1321
  10490.029  10489.990  0.500  0.077595  86.2604  79.8202  29.159
  10497.604  10497.580  0.500  0.076299  86.1057  79.7802  29.1941
  10505.285  10505.250  0.500  0.075115  85.92  79.7026  29.2203
  10513.017  10512.990  0.500  0.073875  85.7765  79.6682  29.2648
  10520.846  10520.810  0.500  0.072786  85.6154  79.6052  29.303
  10528.740  10528.710  0.500  0.071539  85.4505  79.551  29.3402
  10536.709  10536.680  0.500  0.070380  85.2989  79.5019  29.3805
  10544.762  10544.730  0.500  0.069312  85.1163  79.4165  29.4029
  10552.876  10552.850  0.500  0.067962  84.9376  79.3569  29.4347
  10561.076  10561.050  0.500  0.066716  84.7665  79.2957  29.4621
  10569.361  10569.330  0.500  0.065595  84.613  79.2409  29.4884
  10577.707  10577.680  0.500  0.064246  84.4313  79.1775  29.5108
  10586.141  10586.110  0.500  0.063171  84.0949  78.9468  29.4784
  10594.641  10594.610  0.500  0.061722  84.0546  79.0235  29.5667
  10603.218  10603.190  0.500  0.060477  83.8714  78.9495  29.6013
  10611.879  10611.850  0.500  0.059211  83.6674  78.8571  29.6315
  10620.622  10620.590  0.500  0.057835  83.4987  78.8065  29.6764
  10629.418  10629.400  0.500  0.056658  83.3179  78.7285  29.7067
  10638.309  10638.280  0.500  0.055301  83.1062  78.6351  29.7305
  10647.268  10647.240  0.500  0.054088  82.9539  78.5862  29.7706
  10656.307  10656.280  0.500  0.052797  82.7598  78.5036  29.7904
  10660.869  10660.830  0.500  0.052111  82.1869  78.0137  29.6291