File: xdidata/Cs/Cs-L1-CesiumNitrate.xdi
# XDI/1.0 BlueSky/1.10.0 BMM/2023-1.0-py310-tiled
# Beamline.name: BMM (06BM) -- Beamline for Materials Measurement (NIST)
# Beamline.xray_source: NSLS-II three-pole wiggler
# Beamline.collimation: paraboloid mirror, 5 nm Rh on 30 nm Pt
# Beamline.focusing: not in use
# Beamline.harmonic_rejection: flat mirror, Si stripe, pitch = 7.0 mrad relative to beam
# Beamline.software: Bluesky 1.10.0, Ophyd 1.7.0, DataBroker 2.0.0b13, Python 3.10.8, 2023-1.0-py310-tiled
# Detector.I0: 10 cm N2
# Detector.I1: 25 cm N2
# Detector.I2: 25 cm N2
# Element.symbol: Cs
# Element.edge: L1
# Element.reference: Cs
# Element.reference_material: CsNO3
# Facility.name: NSLS-II
# Facility.energy: 3.0
# Facility.current: 400.1
# Facility.mode: top-off
# Facility.GUP: 301027
# Facility.SAF: 310583
# Facility.cycle: 2023-2
# Mono.name: Si(111)
# Mono.d_spacing: 3.13519
# Mono.encoder_resolution: 0.0000050 deg/ct
# Mono.angle_offset: 16.0754 deg
# Mono.scan_mode: pseudo channel cut
# Mono.scan_type: step
# Mono.direction: forward in energy
# Sample.name: CsNO3
# Sample.prep: PEG pellet
# Sample.x: 109.138 mm
# Sample.y: 153.150 mm
# Sample.SDD_position: 205.000 mm
# Scan.experimenters: Bruce Ravel
# Scan.edge_energy: 5714.3
# Scan.start_time: 2023-05-28T11:24:50
# Scan.end_time: 2023-05-28T11:32:53
# Scan.transient_id: 78637
# Scan.uid: 978fbc65-d652-4abf-8b2f-789fcd1061a3
# Scan.plot_hint: ln(It/Ir)  --  ln($6/$7)
# Column.1: energy eV
# Column.2: requested_energy eV
# Column.3: measurement_time seconds
# Column.4: xmu
# Column.5: I0 nA
# Column.6: It nA
# Column.7: Ir nA
# ///////////
# sample courtesy Martin Stennett, University of Sheffield
# -----------
# energy  requested_energy  measurement_time  xmu  I0  It  Ir
  5514.312  5514.300  0.500  3.332265  108.005  48.2234  1.722159
  5544.313  5544.300  0.500  3.283628  109.447  50.0497  1.876463
  5574.312  5574.300  0.500  3.236454  110.855  51.8669  2.038526
  5604.286  5604.300  0.500  3.190587  112.104  53.6934  2.209362
  5634.294  5634.300  0.500  3.146079  112.991  55.3582  2.381535
  5664.296  5664.300  0.500  3.102458  114.067  57.0991  2.565952
  5686.293  5686.300  0.500  3.071663  114.812  58.381  2.705610
  5692.291  5692.300  0.500  3.063340  114.995  58.6941  2.742853
  5698.304  5698.300  0.500  3.055531  115.186  59.0789  2.782478
  5704.300  5704.300  0.500  3.047803  115.345  59.4348  2.820961
  5705.186  5705.200  0.500  3.046613  115.367  59.4613  2.825577
  5706.092  5706.100  0.500  3.045486  115.368  59.5121  2.831177
  5706.989  5707.000  0.500  3.044184  115.418  59.5839  2.838289
  5707.892  5707.900  0.500  3.043097  115.43  59.6183  2.843018
  5708.792  5708.800  0.500  3.042048  115.439  59.6529  2.847652
  5709.694  5709.700  0.500  3.040998  115.471  59.7032  2.853045
  5710.594  5710.600  0.500  3.039892  115.495  59.7443  2.858172
  5711.497  5711.500  0.500  3.039377  115.516  59.7739  2.861059
  5712.393  5712.400  0.500  3.038446  115.533  59.8493  2.867340
  5713.300  5713.300  0.500  3.037821  115.545  59.907  2.871895
  5714.197  5714.200  0.500  3.037631  115.554  59.9431  2.874173
  5715.099  5715.100  0.500  3.037797  115.556  59.9578  2.874400
  5715.998  5716.000  0.500  3.039324  115.585  60.058  2.874811
  5716.896  5716.900  0.500  3.040947  115.594  60.0461  2.869579
  5717.800  5717.800  0.500  3.043559  115.905  60.2459  2.871617
  5718.701  5718.700  0.500  3.047325  115.962  60.3164  2.864168
  5719.600  5719.600  0.500  3.050600  116.016  60.3775  2.857696
  5720.497  5720.500  0.500  3.050721  116.018  60.4077  2.858782
  5721.400  5721.400  0.500  3.048993  116.036  60.4541  2.865924
  5722.302  5722.300  0.500  3.047963  116.069  60.5097  2.871520
  5723.200  5723.200  0.500  3.047796  116.078  60.5643  2.874590
  5724.103  5724.100  0.500  3.047098  116.077  60.5697  2.876853
  5725.002  5725.000  0.500  3.046267  116.105  60.666  2.883822
  5725.901  5725.900  0.500  3.045474  116.119  60.726  2.888967
  5726.804  5726.800  0.500  3.043697  116.132  60.7827  2.896802
  5727.701  5727.700  0.500  3.040850  116.133  60.8138  2.906549
  5728.602  5728.600  0.500  3.038157  116.154  60.8597  2.916585
  5729.507  5729.500  0.500  3.035820  116.171  60.9038  2.925528
  5730.402  5730.400  0.500  3.033723  116.168  60.9561  2.934188
  5731.301  5731.300  0.500  3.031989  116.194  60.9901  2.940921
  5732.205  5732.200  0.500  3.030273  116.211  61.0667  2.949672
  5733.099  5733.100  0.500  3.028281  116.228  61.1063  2.957469
  5734.001  5734.000  0.500  3.026460  116.239  61.0713  2.961164
  5734.903  5734.900  0.500  3.024826  116.27  61.1496  2.969806
  5735.799  5735.800  0.500  3.023823  116.248  61.1813  2.974329
  5736.703  5736.700  0.500  3.023441  116.251  61.2075  2.976743
  5737.602  5737.600  0.500  3.022691  116.248  61.2338  2.980251
  5738.502  5738.500  0.500  3.022084  116.284  61.2991  2.985244
  5739.298  5739.300  0.500  3.021049  116.3  61.3724  2.991908
  5742.307  5742.310  0.500  3.017825  116.359  61.5428  3.009902
  5745.502  5745.500  0.500  3.014058  116.414  61.7065  3.029298
  5748.868  5748.860  0.500  3.009744  116.476  61.8774  3.050820
  5752.386  5752.380  0.500  3.005061  116.538  62.065  3.074434
  5756.085  5756.080  0.500  2.999884  116.592  62.2356  3.098886
  5759.957  5759.950  0.500  2.994124  116.657  62.4107  3.125557
  5764.008  5764.000  0.500  2.988336  116.748  62.6551  3.156013
  5768.216  5768.210  0.500  2.982626  116.845  62.8908  3.186024
  5772.592  5772.590  0.500  2.976902  116.891  63.1123  3.215597
  5777.157  5777.150  0.500  2.971145  116.937  63.2905  3.243297
  5781.889  5781.880  0.500  2.965328  117.013  63.5429  3.275227
  5786.791  5786.780  0.500  2.958791  117.095  63.8209  3.311128
  5791.857  5791.850  0.500  2.952533  117.153  64.0503  3.343891
  5797.094  5797.090  0.500  2.945720  117.201  64.2647  3.378021
  5802.520  5802.510  0.500  2.938393  117.206  64.52  3.416382
  5808.096  5808.090  0.500  2.931419  117.257  64.7899  3.454684
  5813.854  5813.850  0.500  2.924116  117.254  65.0681  3.494947
  5819.790  5819.780  0.500  2.916710  117.263  65.3264  3.534904
  5825.888  5825.880  0.500  2.909153  117.277  65.5901  3.576098
  5832.154  5832.150  0.500  2.901697  117.263  65.8307  3.616077
  5838.597  5838.590  0.500  2.893850  117.219  66.1093  3.659988
  5845.209  5845.200  0.500  2.885402  117.164  66.3276  3.703223
  5851.996  5851.990  0.500  2.877109  117.07  66.5531  3.746758
  5858.959  5858.950  0.500  2.868599  116.868  66.7535  3.790159
  5866.076  5866.070  0.500  2.859593  116.379  66.7802  3.825974
  5873.376  5873.370  0.500  2.850176  89.8495  51.7725  2.994217
  5880.861  5880.850  0.500  2.841761  117.527  68.0689  3.969972
  5888.502  5888.490  0.500  2.832632  117.413  68.3298  4.021739
  5896.310  5896.300  0.500  2.823387  117.123  68.4869  4.068422
  5904.301  5904.290  0.500  2.813819  116.667  68.5607  4.111963
  5912.463  5912.450  0.500  2.803731  115.388  68.1342  4.127816
  5920.792  5920.770  0.500  2.793954  117.205  69.5564  4.255380
  5929.280  5929.270  0.500  2.783930  115.106  68.659  4.242797
  5937.975  5937.950  0.500  2.773631  116.179  69.6548  4.348894
  5946.813  5946.790  0.500  2.764074  111.093  66.9932  4.222879
  5955.817  5955.800  0.500  2.752856  116.415  70.5721  4.498658
  5964.998  5964.990  0.500  2.742352  115.761  70.5463  4.544498
  5974.355  5974.350  0.500  2.731544  115.097  70.4884  4.590112
  5983.873  5983.870  0.500  2.720474  113.941  70.218  4.623401
  5993.577  5993.570  0.500  2.709379  115.586  71.6221  4.768464
  6003.456  6003.450  0.500  2.698275  114.265  71.1975  4.793130
  6013.496  6013.490  0.500  2.687032  113.445  71.0825  4.839491
  6023.710  6023.700  0.500  2.675458  112.664  71.0142  4.891125
  6034.114  6034.090  0.500  2.663909  111.871  70.9878  4.946100
  6044.665  6044.650  0.500  2.652176  110.973  70.7805  4.989861
  6055.366  6055.380  0.500  2.640330  109.917  70.555  5.033228
  6066.294  6066.280  0.500  2.628156  108.59  70.0691  5.059798
  6077.388  6077.350  0.500  2.616041  107.453  69.7852  5.100720
  6088.572  6088.590  0.500  2.603599  106.163  69.338  5.131476
  6100.049  6100.010  0.500  2.591109  104.741  68.8758  5.161337
  6111.576  6111.590  0.500  2.578843  103.151  68.242  5.176952
  6123.333  6123.350  0.500  2.565985  101.433  67.5298  5.189217
  6135.265  6135.280  0.500  2.552739  99.5559  66.7088  5.194490
  6147.370  6147.380  0.500  2.540261  97.3611  65.6495  5.176191
  6159.636  6159.650  0.500  2.527361  92.9633  63.063  5.036811
  6172.074  6172.090  0.500  2.514403  94.2245  64.3495  5.206593
  6184.700  6184.710  0.500  2.501132  91.1649  62.6814  5.139380
  6197.478  6197.490  0.500  2.487652  88.4291  61.1506  5.081912
  6210.427  6210.450  0.500  2.474191  85.6186  59.6101  5.021024
  6223.565  6223.580  0.500  2.460752  82.7638  58.025  4.953637
  6236.859  6236.880  0.500  2.447418  79.8679  56.3526  4.875441
  6250.335  6250.350  0.500  2.433642  76.9169  54.6327  4.792208
  6263.989  6264.000  0.500  2.419699  73.984  52.9065  4.705950
  6277.796  6277.810  0.500  2.406174  71.116  51.1839  4.614722
  6291.787  6291.800  0.500  2.392191  68.2605  49.4765  4.523597
  6305.945  6305.960  0.500  2.378596  65.4747  47.7691  4.427270
  6320.282  6320.290  0.500  2.364571  62.7686  46.083  4.331319
  6334.773  6334.790  0.500  2.350606  60.1488  44.4911  4.240508
  6349.451  6349.460  0.500  2.336819  57.6056  42.8773  4.143427
  6364.287  6364.300  0.500  2.322951  55.1663  41.3339  4.050059
  6379.311  6379.320  0.500  2.308880  52.8192  39.8539  3.960384
  6394.488  6394.500  0.500  2.295205  50.5702  38.4335  3.871815
  6409.840  6409.860  0.500  2.281323  48.4152  37.04  3.783597
  6425.376  6425.390  0.500  2.267277  46.3879  35.7351  3.701935
  6441.075  6441.090  0.500  2.253289  44.4035  34.4389  3.617914
  6456.944  6456.960  0.500  2.239133  42.5741  33.2495  3.542759
  6473.003  6473.010  0.500  2.225041  40.7808  32.0671  3.465270
  6489.226  6489.220  0.500  2.210605  39.1165  30.9745  3.395872
  6505.614  6505.610  0.500  2.196548  37.6746  30.0363  3.339627
  6522.164  6522.170  0.500  2.182263  36.1941  29.0514  3.276595
  6538.890  6538.900  0.500  2.168043  34.7809  28.0908  3.213620
  6555.789  6555.800  0.500  2.154040  33.4375  27.2082  3.156545
  6567.163  6567.160  0.500  2.144496  32.587  26.6411  3.120394