File: xdidata/La/La-L3-LanthanumHydroxide.xdi
# XDI/1.0 BlueSky/1.10.0 BMM/2023-1.0-py310-tiled
# Beamline.name: BMM (06BM) -- Beamline for Materials Measurement (NIST)
# Beamline.xray_source: NSLS-II three-pole wiggler
# Beamline.collimation: paraboloid mirror, 5 nm Rh on 30 nm Pt
# Beamline.focusing: not in use
# Beamline.harmonic_rejection: flat mirror, Si stripe, pitch = 7.0 mrad relative to beam
# Beamline.software: Bluesky 1.10.0, Ophyd 1.7.0, DataBroker 2.0.0b13, Python 3.10.8, 2023-1.0-py310-tiled
# Detector.I0: 10 cm N2
# Detector.I1: 25 cm N2
# Detector.I2: 25 cm N2
# Element.symbol: La
# Element.edge: L3
# Element.reference: La
# Element.reference_material: La(OH)3
# Facility.name: NSLS-II
# Facility.energy: 3.0
# Facility.current: 399.8
# Facility.mode: top-off
# Facility.GUP: 301027
# Facility.SAF: 310583
# Facility.cycle: 2023-2
# Mono.name: Si(111)
# Mono.d_spacing: 3.13519
# Mono.encoder_resolution: 0.0000050 deg/ct
# Mono.angle_offset: 16.0754 deg
# Mono.scan_mode: pseudo channel cut
# Mono.scan_type: step
# Mono.direction: forward in energy
# Sample.name: La(OH)3
# Sample.prep: PEG pellet
# Sample.x: 109.138 mm
# Sample.y: 153.150 mm
# Sample.SDD_position: 205.000 mm
# Scan.experimenters: Bruce Ravel
# Scan.edge_energy: 5482.7
# Scan.start_time: 2023-05-28T11:16:01
# Scan.end_time: 2023-05-28T11:22:05
# Scan.transient_id: 78630
# Scan.uid: 146b8c55-6538-4a3a-bc86-e2f344adfa26
# Scan.plot_hint: ln(It/Ir)  --  ln($6/$7)
# Column.1: energy eV
# Column.2: requested_energy eV
# Column.3: measurement_time seconds
# Column.4: xmu
# Column.5: I0 nA
# Column.6: It nA
# Column.7: Ir nA
# ///////////
# sample courtesy Martin Stennett, University of Sheffield
# -----------
# energy  requested_energy  measurement_time  xmu  I0  It  Ir
  5282.709  5282.700  0.500  4.143048  99.7448  36.3051  0.576321
  5302.695  5302.700  0.500  4.096540  101.116  37.5514  0.624485
  5322.714  5322.700  0.500  4.051466  102.299  38.7105  0.673441
  5342.710  5342.700  0.500  4.006783  103.382  39.8436  0.724827
  5362.708  5362.700  0.500  3.962545  104.424  40.9559  0.778762
  5382.704  5382.700  0.500  3.919248  104.529  41.7205  0.828403
  5402.714  5402.700  0.500  3.876296  105.497  42.8632  0.888445
  5422.709  5422.700  0.500  3.834747  106.108  43.8628  0.947734
  5442.707  5442.700  0.500  3.795427  106.796  44.9167  1.009426
  5454.711  5454.700  0.500  3.775731  107.18  45.5507  1.044037
  5458.706  5458.700  0.500  3.770708  107.255  45.7431  1.053725
  5462.709  5462.700  0.500  3.766573  107.449  45.9658  1.063244
  5466.701  5466.700  0.500  3.765418  107.501  46.1535  1.068820
  5470.699  5470.700  0.500  3.768926  107.559  46.3279  1.069102
  5472.995  5473.000  0.500  3.775154  107.619  46.4344  1.064906
  5473.590  5473.600  0.500  3.777528  107.639  46.4783  1.063386
  5474.192  5474.200  0.500  3.780578  107.622  46.4931  1.060484
  5474.790  5474.800  0.500  3.783703  107.659  46.5311  1.058040
  5475.392  5475.400  0.500  3.788037  107.673  46.5881  1.054755
  5475.990  5476.000  0.500  3.792164  107.663  46.5935  1.050533
  5476.593  5476.600  0.500  3.797740  107.679  46.6388  1.045706
  5477.196  5477.200  0.500  3.803909  107.726  46.667  1.039903
  5477.794  5477.800  0.500  3.811291  107.735  46.6866  1.032690
  5478.394  5478.400  0.500  3.820326  107.709  46.659  1.022796
  5478.996  5479.000  0.500  3.830953  107.726  46.6775  1.012386
  5479.596  5479.600  0.500  3.843965  107.669  46.7293  1.000407
  5480.194  5480.200  0.500  3.860256  107.753  46.7983  0.985694
  5480.795  5480.800  0.500  3.880257  107.722  46.8005  0.966219
  5481.397  5481.400  0.500  3.906111  107.767  46.8712  0.942982
  5481.998  5482.000  0.500  3.939059  107.785  46.8569  0.912141
  5482.597  5482.600  0.500  3.982561  108.112  47.0477  0.876868
  5483.198  5483.200  0.500  4.035254  108.171  47.0737  0.832318
  5483.799  5483.800  0.500  4.091611  108.138  47.0952  0.787069
  5484.398  5484.400  0.500  4.148322  108.167  47.1459  0.744476
  5484.996  5485.000  0.500  4.223650  108.201  47.1761  0.690898
  5485.594  5485.600  0.500  4.333631  108.208  47.1451  0.618535
  5486.200  5486.200  0.500  4.501157  108.213  47.2095  0.523843
  5486.800  5486.800  0.500  4.734357  108.234  47.2563  0.415293
  5487.400  5487.400  0.500  5.077572  108.189  47.2367  0.294522
  5487.999  5488.000  0.500  5.529175  108.255  47.2643  0.187604
  5488.603  5488.600  0.500  6.067250  108.26  47.3342  0.109699
  5489.199  5489.200  0.500  6.523347  108.315  47.3361  0.069525
  5489.799  5489.800  0.500  6.748904  108.321  47.3736  0.055530
  5490.400  5490.400  0.500  6.672883  108.29  47.3854  0.059931
  5491.000  5491.000  0.500  6.398903  108.307  47.4428  0.078915
  5491.601  5491.600  0.500  6.080871  108.277  47.4225  0.108417
  5492.197  5492.200  0.500  5.770793  108.291  47.4772  0.148000
  5492.801  5492.800  0.500  5.502489  108.291  47.4844  0.193576
  5493.401  5493.400  0.500  5.279085  108.314  47.5265  0.242247
  5494.001  5494.000  0.500  5.103961  108.347  47.5718  0.288886
  5494.603  5494.600  0.500  4.969454  108.319  47.5887  0.330596
  5495.203  5495.200  0.500  4.868319  108.496  47.705  0.366674
  5495.799  5495.800  0.500  4.789775  108.371  47.6656  0.396307
  5496.403  5496.400  0.500  4.723144  108.336  47.6965  0.423888
  5497.003  5497.000  0.500  4.666679  108.338  47.6917  0.448467
  5497.600  5497.600  0.500  4.623189  108.328  47.6858  0.468342
  5498.203  5498.200  0.500  4.596820  108.394  47.7685  0.481690
  5498.806  5498.800  0.500  4.585896  108.394  47.7943  0.487244
  5499.402  5499.400  0.500  4.585957  108.377  47.8028  0.487301
  5500.009  5500.000  0.500  4.587887  108.24  47.776  0.486089
  5500.599  5500.600  0.500  4.584189  108.381  47.8139  0.488277
  5501.201  5501.200  0.500  4.574547  108.36  47.8408  0.493285
  5501.805  5501.800  0.500  4.562192  108.345  47.8446  0.499457
  5502.401  5502.400  0.500  4.551200  108.37  47.887  0.505425
  5502.997  5503.000  0.500  4.538737  108.399  47.9473  0.512408
  5503.603  5503.600  0.500  4.525933  108.332  47.9363  0.518892
  5504.202  5504.200  0.500  4.511951  108.401  47.9969  0.526863
  5504.800  5504.800  0.500  4.497264  108.385  48.0143  0.534852
  5505.402  5505.400  0.500  4.485261  108.427  48.0569  0.541790
  5506.001  5506.000  0.500  4.478031  108.393  48.0705  0.545876
  5506.600  5506.600  0.500  4.477311  108.431  48.1078  0.546694
  5507.203  5507.200  0.500  4.482119  108.354  48.0894  0.543863
  5507.696  5507.700  0.500  4.489709  108.378  48.0937  0.539800
  5509.698  5509.690  0.500  4.528105  108.41  48.2267  0.520903
  5511.756  5511.760  0.500  4.585798  108.386  48.2895  0.492341
  5513.898  5513.900  0.500  4.644739  108.421  48.3869  0.465096
  5516.121  5516.120  0.500  4.711764  108.464  48.5059  0.436015
  5518.409  5518.410  0.500  4.760565  108.463  48.5814  0.415894
  5520.780  5520.780  0.500  4.776095  108.516  48.7072  0.410546
  5523.231  5523.230  0.500  4.756246  108.481  48.803  0.419599
  5525.750  5525.750  0.500  4.711450  108.583  48.9411  0.440065
  5528.356  5528.350  0.500  4.657765  108.575  49.0032  0.464926
  5531.038  5531.030  0.500  4.599461  108.568  49.1268  0.494081
  5533.787  5533.780  0.500  4.550008  108.585  49.2159  0.520070
  5536.619  5536.610  0.500  4.522336  108.607  49.3491  0.536109
  5539.511  5539.510  0.500  4.515738  108.655  49.4886  0.541184
  5542.494  5542.490  0.500  4.509566  108.673  49.5927  0.545680
  5545.557  5545.550  0.500  4.506999  108.673  49.7512  0.548831
  5548.686  5548.680  0.500  4.514364  108.672  49.8572  0.545965
  5551.900  5551.890  0.500  4.526696  108.732  50.0213  0.541048
  5555.187  5555.180  0.500  4.546138  108.716  50.1363  0.531851
  5558.545  5558.540  0.500  4.570665  108.671  50.2321  0.519956
  5561.988  5561.980  0.500  4.584252  108.678  50.3705  0.514353
  5565.499  5565.490  0.500  4.582843  108.758  50.5561  0.516975
  5569.092  5569.080  0.500  4.575362  108.753  50.6932  0.522270
  5572.762  5572.750  0.500  4.555883  108.705  50.81  0.533770
  5576.495  5576.490  0.500  4.529383  108.792  50.9746  0.549880
  5580.318  5580.310  0.500  4.503263  108.764  51.1254  0.566102
  5584.222  5584.210  0.500  4.477688  108.769  51.3154  0.582924
  5588.194  5588.180  0.500  4.468502  108.766  51.4494  0.589841
  5592.229  5592.220  0.500  4.463757  108.783  51.5704  0.594040
  5596.359  5596.350  0.500  4.461429  108.758  51.73  0.597268
  5600.566  5600.550  0.500  4.457128  108.779  51.9211  0.602057
  5604.837  5604.820  0.500  4.458458  108.755  52.0878  0.603188
  5609.192  5609.180  0.500  4.461973  108.801  52.3011  0.603533
  5613.612  5613.600  0.500  4.450169  108.773  52.4095  0.611965
  5618.128  5618.110  0.500  4.441634  108.823  52.6465  0.620001
  5622.708  5622.690  0.500  4.437163  108.837  52.8511  0.625199
  5627.368  5627.350  0.500  4.430742  108.732  52.9941  0.630930
  5632.096  5632.080  0.500  4.420847  109.151  53.3716  0.641742
  5636.908  5636.890  0.500  4.409936  109.145  53.5067  0.650425
  5641.774  5641.770  0.500  4.393977  109.212  53.7568  0.663977
  5646.750  5646.740  0.500  4.372955  109.164  53.9399  0.680393
  5651.779  5651.770  0.500  4.356217  109.142  54.1253  0.694255
  5656.895  5656.890  0.500  4.343910  109.122  54.3087  0.705234
  5662.087  5662.080  0.500  4.336390  109.043  54.4856  0.712871
  5667.355  5667.350  0.500  4.332126  108.932  54.683  0.718511
  5672.697  5672.690  0.500  4.323037  108.867  54.7984  0.726602
  5678.114  5678.110  0.500  4.311709  108.862  55.0199  0.737851
  5683.601  5683.600  0.500  4.302717  108.743  55.2038  0.747003
  5689.174  5689.170  0.500  4.292164  108.732  55.4138  0.757800
  5694.820  5694.820  0.500  4.282561  108.481  55.4977  0.766271
  5700.548  5700.550  0.500  4.272862  108.346  55.6508  0.775873
  5706.354  5706.350  0.500  4.264792  108.229  55.8613  0.785118
  5712.222  5712.220  0.500  4.257037  108.054  55.9617  0.792653
  5718.174  5718.170  0.500  4.244804  107.772  56.0632  0.803865
  5724.202  5724.200  0.500  4.230184  107.481  56.1152  0.816459
  5730.314  5730.310  0.500  4.211949  107.241  56.2503  0.833487
  5736.492  5736.490  0.500  4.194423  106.874  56.3038  0.849029
  5742.754  5742.750  0.500  4.180975  106.484  56.353  0.861276
  5749.082  5749.080  0.500  4.171722  106.121  56.3945  0.869923
  5755.496  5755.490  0.500  4.163585  105.576  56.3503  0.876343
  5761.971  5761.970  0.500  4.154357  105.183  56.3849  0.885011
  5768.543  5768.540  0.500  4.140961  104.718  56.3644  0.896620
  5775.175  5775.170  0.500  4.126377  104.178  56.3286  0.909215
  5781.898  5781.890  0.500  4.111926  103.596  56.2698  0.921486
  5788.683  5788.680  0.500  4.096933  102.982  56.1868  0.934026
  5795.575  5795.550  0.500  4.083566  102.369  56.1102  0.945304
  5802.484  5802.490  0.500  4.071482  101.696  55.9976  0.954876
  5809.506  5809.510  0.500  4.060364  101.05  55.895  0.963783
  5816.598  5816.600  0.500  4.047931  100.394  55.7878  0.973969
  5823.793  5823.780  0.500  4.033102  99.6788  55.6566  0.986195
  5831.009  5831.020  0.500  4.015376  98.9399  55.486  1.000755
  5838.363  5838.350  0.500  3.997987  98.2584  55.3783  1.016333
  5845.752  5845.750  0.500  3.982746  97.5285  55.2419  1.029399
  5853.206  5853.220  0.500  3.968630  96.7778  55.0659  1.040707
  5860.780  5860.780  0.500  3.954513  95.9656  54.8432  1.051234
  5868.422  5868.410  0.500  3.942260  94.537  54.2736  1.053142
  5872.244  5872.250  0.500  3.937030  89.3462  51.4202  1.003006