File: xdidata/La/La-L1-LanthanumHydroxide.xdi
# XDI/1.0 BlueSky/1.10.0 BMM/2023-1.0-py310-tiled
# Beamline.name: BMM (06BM) -- Beamline for Materials Measurement (NIST)
# Beamline.xray_source: NSLS-II three-pole wiggler
# Beamline.collimation: paraboloid mirror, 5 nm Rh on 30 nm Pt
# Beamline.focusing: not in use
# Beamline.harmonic_rejection: flat mirror, Si stripe, pitch = 7.0 mrad relative to beam
# Beamline.software: Bluesky 1.10.0, Ophyd 1.7.0, DataBroker 2.0.0b13, Python 3.10.8, 2023-1.0-py310-tiled
# Detector.I0: 10 cm N2
# Detector.I1: 25 cm N2
# Detector.I2: 25 cm N2
# Element.symbol: La
# Element.edge: L1
# Element.reference: La
# Element.reference_material: La(OH)3
# Facility.name: NSLS-II
# Facility.energy: 3.0
# Facility.current: 398.6
# Facility.mode: top-off
# Facility.GUP: 301027
# Facility.SAF: 310583
# Facility.cycle: 2023-2
# Mono.name: Si(111)
# Mono.d_spacing: 3.13519
# Mono.encoder_resolution: 0.0000050 deg/ct
# Mono.angle_offset: 16.0754 deg
# Mono.scan_mode: pseudo channel cut
# Mono.scan_type: step
# Mono.direction: forward in energy
# Sample.name: La(OH)3
# Sample.prep: PEG pellet
# Sample.x: 109.138 mm
# Sample.y: 153.150 mm
# Sample.SDD_position: 205.000 mm
# Scan.experimenters: Bruce Ravel
# Scan.edge_energy: 6266.3
# Scan.start_time: 2023-05-28T12:14:57
# Scan.end_time: 2023-05-28T12:23:04
# Scan.transient_id: 78672
# Scan.uid: 1c7fe93c-c574-483a-b625-93c2d677014d
# Scan.plot_hint: ln(It/Ir)  --  ln($6/$7)
# Column.1: energy eV
# Column.2: requested_energy eV
# Column.3: measurement_time seconds
# Column.4: xmu
# Column.5: I0 nA
# Column.6: It nA
# Column.7: Ir nA
# ///////////
# sample courtesy Martin Stennett, University of Sheffield
# -----------
# energy  requested_energy  measurement_time  xmu  I0  It  Ir
  6066.300  6066.300  0.500  4.017890  143.44  92.6887  1.667551
  6096.301  6096.300  0.500  3.974364  144.707  94.9894  1.784969
  6126.309  6126.300  0.500  3.930373  145.949  97.3601  1.911797
  6156.314  6156.300  0.500  3.876935  146.983  99.658  2.064338
  6186.292  6186.300  0.500  3.832732  148.095  101.953  2.207311
  6216.296  6216.300  0.500  3.787979  148.751  103.963  2.353865
  6238.301  6238.300  0.500  3.755359  149.467  105.624  2.470773
  6244.299  6244.300  0.500  3.745680  149.637  105.993  2.503517
  6250.294  6250.300  0.500  3.737477  149.81  106.504  2.536300
  6256.294  6256.300  0.500  3.730490  149.982  106.919  2.564036
  6257.183  6257.200  0.500  3.729625  149.999  106.975  2.567606
  6258.085  6258.100  0.500  3.728607  150.011  106.939  2.569341
  6258.988  6259.000  0.500  3.727790  150.061  107.119  2.575771
  6259.891  6259.900  0.500  3.727189  150.054  107.093  2.576686
  6260.790  6260.800  0.500  3.726319  150.037  107.164  2.580649
  6261.691  6261.700  0.500  3.725701  150.03  107.217  2.583527
  6262.599  6262.600  0.500  3.725592  150.08  107.326  2.586431
  6263.493  6263.500  0.500  3.724827  150.104  107.335  2.588633
  6264.395  6264.400  0.500  3.724899  150.139  107.372  2.589327
  6265.298  6265.300  0.500  3.725291  150.154  107.463  2.590523
  6266.199  6266.200  0.500  3.725713  150.179  107.617  2.593122
  6267.097  6267.100  0.500  3.726585  150.196  107.544  2.589103
  6267.996  6268.000  0.500  3.727602  150.217  107.618  2.588256
  6268.900  6268.900  0.500  3.730588  150.228  107.685  2.582147
  6269.795  6269.800  0.500  3.735374  150.234  107.719  2.570631
  6270.699  6270.700  0.500  3.743955  150.277  107.796  2.550490
  6271.599  6271.600  0.500  3.754368  150.278  107.849  2.525305
  6272.497  6272.500  0.500  3.761093  150.283  107.964  2.511062
  6273.400  6273.400  0.500  3.765108  150.314  108.017  2.502229
  6274.302  6274.300  0.500  3.770018  150.308  108.066  2.491099
  6275.197  6275.200  0.500  3.777449  150.327  108.137  2.474278
  6276.099  6276.100  0.500  3.787579  150.356  108.197  2.450704
  6277.004  6277.000  0.500  3.801689  150.378  108.276  2.418122
  6277.895  6277.900  0.500  3.819116  150.374  108.303  2.376950
  6278.800  6278.800  0.500  3.841397  150.406  108.396  2.326562
  6279.703  6279.700  0.500  3.866428  150.404  108.402  2.269173
  6280.599  6280.600  0.500  3.895533  150.455  108.497  2.206013
  6281.504  6281.500  0.500  3.924170  150.485  108.556  2.144902
  6282.405  6282.400  0.500  3.949505  150.506  108.614  2.092368
  6283.297  6283.300  0.500  3.969806  150.526  108.709  2.052114
  6284.203  6284.200  0.500  3.982290  150.519  108.747  2.027367
  6285.103  6285.100  0.500  3.983284  150.547  108.827  2.026828
  6285.997  6286.000  0.500  3.975078  150.555  108.875  2.044428
  6286.901  6286.900  0.500  3.962150  150.591  108.927  2.072027
  6287.804  6287.800  0.500  3.948893  150.575  108.97  2.100506
  6288.702  6288.700  0.500  3.937855  150.626  109.009  2.124574
  6289.605  6289.600  0.500  3.928653  150.646  109.12  2.146414
  6290.503  6290.500  0.500  3.920350  151.13  109.505  2.171931
  6291.296  6291.300  0.500  3.913189  151.234  109.593  2.189311
  6294.310  6294.310  0.500  3.896979  151.321  109.854  2.230382
  6297.501  6297.500  0.500  3.876706  151.388  110.066  2.280455
  6300.861  6300.860  0.500  3.849049  151.466  110.32  2.349821
  6304.380  6304.380  0.500  3.826529  151.521  110.54  2.408123
  6308.084  6308.080  0.500  3.815659  151.587  110.746  2.438979
  6311.952  6311.950  0.500  3.813693  151.63  110.991  2.449196
  6316.002  6316.000  0.500  3.826243  151.676  111.201  2.423225
  6320.219  6320.210  0.500  3.832439  151.705  111.503  2.414791
  6324.597  6324.590  0.500  3.831478  151.749  111.733  2.422107
  6329.154  6329.150  0.500  3.829912  151.774  111.999  2.431676
  6333.887  6333.880  0.500  3.824462  151.815  112.289  2.451283
  6338.784  6338.780  0.500  3.810294  151.884  112.564  2.492347
  6343.859  6343.850  0.500  3.789798  151.878  112.845  2.550318
  6349.096  6349.090  0.500  3.771653  151.969  113.227  2.605813
  6354.519  6354.510  0.500  3.759153  152.024  113.493  2.644787
  6360.100  6360.090  0.500  3.752001  152.082  113.855  2.672257
  6365.859  6365.850  0.500  3.749314  152.193  114.218  2.687993
  6371.795  6371.780  0.500  3.745127  152.268  114.598  2.708247
  6377.889  6377.880  0.500  3.735325  152.339  114.915  2.742502
  6384.161  6384.150  0.500  3.725945  152.403  115.293  2.777454
  6390.604  6390.590  0.500  3.718290  152.477  115.736  2.809551
  6397.211  6397.200  0.500  3.711125  152.537  116.106  2.838803
  6404.006  6403.990  0.500  3.702540  152.612  116.44  2.871501
  6410.964  6410.950  0.500  3.688288  152.702  116.899  2.924215
  6418.079  6418.070  0.500  3.674289  152.776  117.317  2.976026
  6425.383  6425.370  0.500  3.662552  152.834  117.743  3.022105
  6432.864  6432.850  0.500  3.653555  152.793  118.131  3.059461
  6440.503  6440.490  0.500  3.645362  152.92  118.638  3.097858
  6448.312  6448.300  0.500  3.635183  152.301  118.577  3.127952
  6456.299  6456.290  0.500  3.622456  153.044  119.476  3.192040
  6464.457  6464.450  0.500  3.610945  151.658  118.877  3.212791
  6472.778  6472.770  0.500  3.599571  153.126  120.433  3.292104
  6481.279  6481.270  0.500  3.587576  153.093  120.818  3.342474
  6489.962  6489.950  0.500  3.575036  153.217  121.354  3.399667
  6498.803  6498.790  0.500  3.561137  153.245  121.831  3.460792
  6507.818  6507.800  0.500  3.547218  153.298  122.339  3.523921
  6516.997  6516.990  0.500  3.534910  153.334  122.866  3.582939
  6526.374  6526.350  0.500  3.523864  153.408  123.361  3.637343
  6535.902  6535.870  0.500  3.512080  153.433  123.847  3.694942
  6545.572  6545.570  0.500  3.498220  153.454  124.379  3.762626
  6555.446  6555.450  0.500  3.483822  153.413  124.878  3.832508
  6565.472  6565.490  0.500  3.469869  153.427  125.375  3.901805
  6575.691  6575.700  0.500  3.456806  153.458  125.93  3.970598
  6586.088  6586.090  0.500  3.443248  153.253  126.294  4.036455
  6596.637  6596.650  0.500  3.429393  153.438  126.943  4.113803
  6607.368  6607.380  0.500  3.413536  153.455  127.523  4.198624
  6618.271  6618.280  0.500  3.398955  153.395  128.014  4.276720
  6629.339  6629.350  0.500  3.385112  153.293  128.472  4.351855
  6640.572  6640.590  0.500  3.370915  153.878  129.47  4.448348
  6652.036  6652.010  0.500  3.356487  153.87  130.066  4.533758
  6663.584  6663.590  0.500  3.341251  153.801  130.617  4.622901
  6675.347  6675.350  0.500  3.325536  153.679  131.097  4.713364
  6687.294  6687.280  0.500  3.310004  153.595  131.593  4.805258
  6699.366  6699.380  0.500  3.295450  153.421  132.029  4.891871
  6711.644  6711.650  0.500  3.280314  153.176  132.371  4.979330
  6724.093  6724.090  0.500  3.264548  153  132.827  5.075859
  6736.698  6736.710  0.500  3.248572  152.738  133.25  5.174050
  6749.466  6749.490  0.500  3.232539  152.526  133.618  5.272182
  6762.433  6762.450  0.500  3.216730  152.225  134.037  5.372988
  6775.557  6775.580  0.500  3.201039  151.982  134.481  5.476031
  6788.861  6788.880  0.500  3.185316  151.63  134.719  5.572667
  6802.323  6802.350  0.500  3.169339  151.255  135.091  5.678073
  6815.983  6816.000  0.500  3.153074  150.53  135.115  5.772204
  6829.788  6829.810  0.500  3.136779  150.096  135.301  5.875104
  6843.787  6843.800  0.500  3.120408  149.398  135.333  5.973489
  6857.936  6857.960  0.500  3.103759  149.327  135.917  6.099989
  6872.267  6872.290  0.500  3.087293  149.038  136.261  6.216932
  6886.770  6886.790  0.500  3.070978  148.731  136.674  6.338366
  6901.441  6901.460  0.500  3.054136  148.389  137.027  6.462648
  6916.283  6916.300  0.500  3.037476  147.815  137.122  6.575774
  6931.304  6931.320  0.500  3.020715  147.283  137.335  6.697330
  6946.483  6946.500  0.500  3.003616  146.82  137.571  6.824521
  6961.840  6961.860  0.500  2.986615  146.357  137.847  6.955466
  6977.371  6977.390  0.500  2.969828  145.9  138.054  7.083832
  6993.074  6993.090  0.500  2.952698  145.372  138.229  7.215387
  7008.936  7008.960  0.500  2.935660  144.842  138.417  7.349346
  7024.991  7025.010  0.500  2.918326  144.186  138.486  7.481558
  7041.206  7041.220  0.500  2.901017  143.55  138.545  7.615422
  7057.591  7057.610  0.500  2.883932  142.789  138.487  7.743433
  7074.150  7074.170  0.500  2.866554  142.032  138.465  7.877905
  7090.885  7090.900  0.500  2.849474  141.098  138.188  7.997609
  7107.790  7107.800  0.500  2.832012  140.209  138.038  8.129632
  7119.144  7119.160  0.500  2.820323  139.187  137.49  8.192576