File: xdidata/La/La-L3-LaAlO3.xdi
# XDI/1.0 BlueSky/1.5.3
# Beamline.name: 6BM
# Beamline.xray_source: NSLS-II three-pole wiggler
# Beamline.collimation: paraboloid mirror, 5 nm Rh on 30 nm Pt
# Beamline.focusing: not in use
# Beamline.harmonic_rejection: flat mirror, Si stripe, pitch = 7.0 mrad relative to beam
# Detector.i0: 10 cm N2
# Detector.I1: 25 cm N2
# Detector.I2: 25 cm N2
# Element.symbol: La
# Element.edge: L3
# Facility.name: NSLS-II
# Facility.energy: 3.0
# Facility.current: 399.6
# Facility.mode: top-off
# Facility.GUP: 305832
# Facility.SAF: 305669
# Facility.cycle: 2020-1
# Mono.name: Si(111)
# Mono.d_spacing: 3.13532
# Mono.encoder_resolution: 0.0000050 deg/ct
# Mono.angle_offset: 16.0581 deg
# Mono.scan_mode: fixed exit
# Mono.scan_type: step
# Mono.direction: forward in energy
# Sample.name: LaAlO3
# Sample.prep: Powder in polyethylene glycol pellet
# Sample.x_position: -3.945 mm
# Sample.y_position: 103.894 mm
# Scan.experimenters: Neil Hyatt, Martin Stennett, Dan Austin, Seb Lawson
# Scan.edge_energy: 5482.7
# Scan.start_time: 2020-03-03T02:41:35
# Scan.end_time: 2020-03-03T02:51:40
# Scan.transient_id: 22549
# Scan.uid: 7f73b169-c664-4e8e-b0a5-c4ebab800bb6
# Scan.plot_hint: (DTC1 + DTC2 + DTC3 + DTC4) / i0  --  ($8+$9+$10+$11) / $5
# Column.1: energy eV
# Column.2: requested_energy eV
# Column.3: measurement_time seconds
# Column.4: mutrans
# Column.5: i0
# Column.6: itrans
# Column.7: irefer
# ///////////
#
# -----------
#  energy  requested_energy  measurement_time  mutrans  i0  itrans  irefer
5282.700  5282.700  1.000  0.000000  55.3115  0.677791  0.102185
5312.709  5312.700  1.000  0.000000  56.1598  0.749922  0.116072
5342.707  5342.700  1.000  0.000000  56.6099  0.819742  0.126608
5372.702  5372.700  1.000  0.000000  57.6151  0.904689  0.143226
5402.695  5402.700  1.000  0.017505  58.5905  0.993999  0.164099
5432.700  5432.700  1.000  0.017320  59.3875  1.085217  0.181170
5454.699  5454.700  1.000  0.017065  59.9022  1.148911  0.194332
5460.692  5460.700  1.000  0.033909  59.9761  1.163746  0.196166
5466.703  5466.700  1.000  0.034298  60.0796  1.172076  0.153611
5472.702  5472.700  1.000  0.019409  60.1086  1.162892  0.126557
5473.444  5473.450  1.000  0.033627  60.1079  1.159221  0.118226
5474.192  5474.200  1.000  0.016639  60.0996  1.153404  0.112033
5474.945  5474.950  1.000  0.031202  60.0931  1.151900  0.107246
5475.696  5475.700  1.000  0.062845  60.1128  1.145828  0.103928
5476.447  5476.450  1.000  0.000000  60.0977  1.135857  0.100899
5477.197  5477.200  1.000  0.000000  60.1031  1.126063  0.096958
5477.952  5477.950  1.000  0.078403  60.1285  1.116757  0.087766
5478.697  5478.700  1.000  0.024959  60.0991  1.103479  0.087175
5479.448  5479.450  1.000  0.069348  60.0831  1.083311  0.086750
5480.203  5480.200  1.000  0.166429  60.0857  1.060515  0.081122
5480.950  5480.950  1.000  0.033291  60.0762  1.030598  0.075502
5481.699  5481.700  1.000  0.076493  60.0804  0.987731  0.066892
5482.453  5482.450  1.000  0.041626  60.0582  0.935901  0.065392
5483.202  5483.200  1.000  0.031465  60.0316  0.874050  0.063349
5483.948  5483.950  1.000  0.054331  60.0275  0.814940  0.059557
5484.701  5484.700  1.000  0.042759  60.0486  0.740722  0.057278
5485.453  5485.450  1.000  0.000000  60.019  0.633745  0.048211
5486.201  5486.200  1.000  0.047913  60.0047  0.496312  0.044396
5486.953  5486.950  1.000  0.016668  59.9951  0.345848  0.031952
5487.701  5487.700  1.000  0.034485  59.9741  0.214095  0.022561
5488.451  5488.450  1.000  0.029155  60.0236  0.133211  0.019342
5489.202  5489.200  1.000  0.017137  60.159  0.095399  0.015366
5489.950  5489.950  1.000  0.017103  60.1559  0.100262  0.016223
5490.701  5490.700  1.000  0.034611  60.1432  0.126164  0.014592
5491.453  5491.450  1.000  0.034773  60.1432  0.172682  0.020591
5492.201  5492.200  1.000  0.051419  60.1121  0.223194  0.022364
5492.955  5492.950  1.000  0.034065  60.077  0.281733  0.026832
5493.703  5493.700  1.000  0.017404  60.0704  0.343308  0.031471
5494.451  5494.450  1.000  0.000000  60.041  0.398517  0.035007
5495.204  5495.200  1.000  0.098066  59.9934  0.443476  0.037226
5495.952  5495.950  1.000  0.056126  59.9908  0.479387  0.041258
5496.700  5496.700  1.000  0.018013  59.9827  0.510346  0.045815
5497.455  5497.450  1.000  0.046069  59.9648  0.537249  0.045213
5498.202  5498.200  1.000  0.017186  59.9311  0.550944  0.045289
5498.953  5498.950  1.000  0.053118  59.8716  0.557491  0.045958
5499.704  5499.700  1.000  0.017402  59.8597  0.554241  0.045295
5500.449  5500.450  1.000  0.052433  59.8171  0.552478  0.043783
5501.199  5501.200  1.000  0.070573  59.7931  0.550513  0.045223
5501.951  5501.950  1.000  0.000000  59.7103  0.556751  0.043807
5502.699  5502.700  1.000  0.092629  59.7149  0.563567  0.044151
5503.450  5503.450  1.000  0.000000  59.6525  0.569956  0.041492
5504.201  5504.200  1.000  0.000000  59.6374  0.575743  0.043962
5504.949  5504.950  1.000  0.055340  59.5846  0.579719  0.043744
5505.703  5505.700  1.000  0.017327  59.5348  0.581487  0.044349
5506.452  5506.450  1.000  0.060608  59.5001  0.584545  0.045091
5507.202  5507.200  1.000  0.035115  59.4598  0.582595  0.044367
5507.955  5507.950  1.000  0.070137  59.4366  0.580076  0.045797
5508.700  5508.700  1.000  0.035532  59.4144  0.575029  0.045543
5509.450  5509.450  1.000  0.017235  59.3539  0.565643  0.043242
5510.203  5510.200  1.000  0.053925  59.3124  0.554348  0.042964
5510.950  5510.950  1.000  0.018116  59.4473  0.542400  0.040494
5511.703  5511.700  1.000  0.019608  59.4982  0.532033  0.041755
5512.454  5512.450  1.000  0.035063  59.493  0.518405  0.041345
5514.895  5514.880  1.000  0.017903  59.3468  0.475212  0.038426
5518.284  5518.280  1.000  0.000000  59.2292  0.431771  0.035577
5521.863  5521.860  1.000  0.000000  59.089  0.447607  0.037498
5525.614  5525.610  1.000  0.053576  58.8816  0.499396  0.042852
5529.535  5529.530  1.000  0.000000  58.6659  0.554804  0.054570
5533.635  5533.630  1.000  0.017960  58.4347  0.585742  0.048277
5537.896  5537.890  1.000  0.017692  58.1863  0.592719  0.049162
5542.334  5542.330  1.000  0.052742  57.9055  0.575167  0.048381
5546.945  5546.940  1.000  0.000000  57.584  0.557902  0.050400
5551.715  5551.710  1.000  0.034915  57.2815  0.530647  0.048597
5556.676  5556.670  1.000  0.092810  56.9211  0.517463  0.045154
5561.797  5561.790  1.000  0.018263  56.5044  0.521217  0.042617
5567.082  5567.080  1.000  0.030548  56.1177  0.543184  0.042295
5572.548  5572.540  1.000  0.037186  55.6707  0.573854  0.049068
5578.187  5578.180  1.000  0.049049  55.2079  0.586459  0.053516
5583.995  5583.990  1.000  0.036515  54.7727  0.572908  0.050786
5589.976  5589.970  1.000  0.019080  54.2508  0.550216  0.048801
5596.117  5596.120  1.000  0.120522  53.7547  0.553533  0.049390
5602.448  5602.440  1.000  0.077504  53.2754  0.572512  0.054198
5608.925  5608.930  1.000  0.058980  52.7246  0.570759  0.051563
5615.593  5615.600  1.000  0.000000  52.2375  0.575196  0.050796
5622.433  5622.440  1.000  0.080016  51.7289  0.578383  0.047129
5629.434  5629.440  1.000  0.061711  51.1672  0.575550  0.051391
5636.619  5636.620  1.000  0.073854  50.7197  0.578275  0.055210
5643.970  5643.970  1.000  0.000000  49.9591  0.586186  0.056732
5651.498  5651.490  1.000  0.031146  49.3952  0.595281  0.053485
5659.201  5659.190  1.000  0.041931  49.3055  0.606386  0.063443
5667.062  5667.050  1.000  0.042337  49.1108  0.615205  0.060895
5675.090  5675.090  1.000  0.022021  48.9039  0.622273  0.061691
5683.287  5683.300  1.000  0.000000  48.7147  0.626761  0.060421
5691.670  5691.680  1.000  0.042262  48.5164  0.633909  0.061927
5700.228  5700.230  1.000  0.075026  48.3566  0.645497  0.059814
5708.946  5708.950  1.000  0.024849  48.2912  0.656440  0.064708
5717.828  5717.840  1.000  0.071988  48.1142  0.664476  0.068624
5726.903  5726.910  1.000  0.042784  47.9985  0.684865  0.071736
5736.138  5736.150  1.000  0.092885  47.9223  0.703147  0.072715
5745.541  5745.550  1.000  0.021626  47.8166  0.711330  0.073984
5755.118  5755.130  1.000  0.000000  47.6927  0.722119  0.077057
5764.868  5764.880  1.000  0.063784  47.5934  0.733134  0.075744
5774.797  5774.810  1.000  0.000000  47.4746  0.748676  0.078730
5784.887  5784.900  1.000  0.068643  47.3657  0.767889  0.080146
5795.169  5795.170  1.000  0.065226  47.2147  0.783313  0.084162
5805.591  5805.600  1.000  0.081146  47.0465  0.804545  0.087282
5816.200  5816.210  1.000  0.066838  46.86  0.819774  0.089493
5826.984  5826.990  1.000  0.045256  46.6486  0.830384  0.092813
5837.929  5837.940  1.000  0.022351  46.4231  0.842022  0.092011
5849.053  5849.060  1.000  0.000000  46.1701  0.865400  0.098702
5860.355  5860.360  1.000  0.033953  45.8146  0.887074  0.100699
5871.809  5871.820  1.000  0.085275  35.4324  0.701210  0.083766
5883.450  5883.460  1.000  0.050987  45.7634  0.911396  0.106163
5895.259  5895.270  1.000  0.022408  45.3303  0.406661  0.052438
5907.242  5907.250  1.000  0.068764  44.8566  0.681013  0.083167
5919.400  5919.400  1.000  0.000000  35.6836  0.531572  0.067178
5931.718  5931.720  1.000  0.066031  39.4431  0.570916  0.071857
5940.025  5940.030  1.000  0.084055  43.5138  0.698417  0.086074