File: xdidata/Data/As/As-K-CacodylicAcid.xdi
# XDI/1.0 BlueSky/1.10.0 BMM/2023-1.0-py310-tiled
# Beamline.name: BMM (06BM) -- Beamline for Materials Measurement (NIST)
# Beamline.xray_source: NSLS-II three-pole wiggler
# Beamline.collimation: paraboloid mirror, 5 nm Rh on 30 nm Pt
# Beamline.focusing: not in use
# Beamline.harmonic_rejection: flat mirror, Pt stripe, pitch = 7.0 mrad relative to beam
# Beamline.software: Bluesky 1.10.0, Ophyd 1.7.0, DataBroker 2.0.0b13, Python 3.10.8, 2023-1.0-py310-tiled
# Detector.I0: 10 cm N2
# Detector.I1: 25 cm N2
# Detector.I2: 25 cm N2
# Element.symbol: As
# Element.edge: K
# Element.reference: As
# Element.reference_material: As2O3
# Facility.name: NSLS-II
# Facility.energy: 3.0
# Facility.current: 400.2
# Facility.mode: top-off
# Facility.GUP: 301027
# Facility.SAF: 310583
# Facility.cycle: 2023-2
# Mono.name: Si(111)
# Mono.d_spacing: 3.13519
# Mono.encoder_resolution: 0.0000050 deg/ct
# Mono.angle_offset: 16.0754 deg
# Mono.scan_mode: pseudo channel cut
# Mono.scan_type: step
# Mono.direction: forward in energy
# Sample.name: C2H7AsO2
# Sample.prep: powder in PEG pellet
# Sample.x: 115.008 mm
# Sample.y: 114.461 mm
# Sample.SDD_position: 170.000 mm
# Scan.experimenters: Bruce Ravel
# Scan.edge_energy: 11866.7
# Scan.start_time: 2023-07-10T16:53:48
# Scan.end_time: 2023-07-10T17:01:41
# Scan.transient_id: 90301
# Scan.uid: d8b30e46-0f08-461c-a012-15ef953595df
# Scan.plot_hint: ln(I0/It)  --  ln($5/$6)
# Column.1: energy eV
# Column.2: requested_energy eV
# Column.3: measurement_time seconds
# Column.4: xmu
# Column.5: I0 nA
# Column.6: It nA
# Column.7: Ir nA
# ///////////
# sample courtesy Evan Jahrman, NIST
# -----------
# energy  requested_energy  measurement_time  xmu  I0  It  Ir
  11666.684  11666.700  0.500  0.086209  65.0732  59.6984  40.5583
  11696.736  11696.700  0.500  0.080690  64.7278  59.7101  40.675
  11726.749  11726.700  0.500  0.075382  64.3209  59.6506  40.7448
  11756.732  11756.700  0.500  0.070147  63.7998  59.4778  40.7249
  11786.750  11786.700  0.500  0.065267  63.5207  59.5073  40.8296
  11816.711  11816.700  0.500  0.061322  63.0702  59.3188  40.7499
  11838.668  11838.700  0.500  0.060484  62.798  59.1123  40.523
  11844.666  11844.700  0.500  0.061373  62.7326  58.9982  40.3632
  11850.664  11850.700  0.500  0.063620  62.6319  58.7713  40.0475
  11856.668  11856.700  0.500  0.068681  62.3826  58.242  39.3384
  11857.561  11857.600  0.500  0.069922  62.4781  58.2587  39.2658
  11858.467  11858.500  0.500  0.071534  62.4888  58.1748  39.1096
  11859.361  11859.400  0.500  0.073274  62.2813  57.8809  38.7969
  11860.260  11860.300  0.500  0.075429  62.1484  57.633  38.4945
  11861.160  11861.200  0.500  0.077884  62.2418  57.5782  38.2862
  11862.066  11862.100  0.500  0.080841  62.3377  57.4965  38.0289
  11862.979  11863.000  0.500  0.084393  62.2387  57.2017  37.5932
  11863.885  11863.900  0.500  0.088797  62.2863  56.9939  37.1476
  11864.792  11864.800  0.500  0.094358  62.3878  56.7702  36.6088
  11865.692  11865.700  0.500  0.101653  62.4053  56.3733  35.8271
  11866.581  11866.600  0.500  0.111222  62.3873  55.8205  34.7805
  11867.494  11867.500  0.500  0.124268  62.3789  55.0895  33.3533
  11868.377  11868.400  0.500  0.142112  62.3526  54.0924  31.4442
  11869.290  11869.300  0.500  0.169126  62.3376  52.638  28.7385
  11870.204  11870.200  0.500  0.212954  62.292  50.344  24.9242
  11871.099  11871.100  0.500  0.290460  62.1558  46.4875  20.0431
  11872.000  11872.000  0.500  0.443121  62.1641  39.9112  14.7529
  11872.890  11872.900  0.500  0.735032  62.2727  29.8591  9.959385
  11873.792  11873.800  0.500  1.200800  62.2894  18.7462  6.158365
  11874.706  11874.700  0.500  1.634368  62.279  12.1491  4.182509
  11875.602  11875.600  0.500  1.700618  62.2638  11.3675  4.079147
  11876.498  11876.500  0.500  1.480306  62.2408  14.164  5.220958
  11877.407  11877.400  0.500  1.219185  62.2269  18.3862  7.042366
  11878.297  11878.300  0.500  1.036935  62.2128  22.0569  8.847307
  11879.181  11879.200  0.500  0.938429  62.1906  24.3316  10.1631
  11880.090  11880.100  0.500  0.906495  62.3948  25.2036  10.7949
  11881.011  11881.000  0.500  0.912234  62.371  25.0498  10.78
  11881.896  11881.900  0.500  0.925687  62.3505  24.707  10.4624
  11882.806  11882.800  0.500  0.940814  62.3245  24.3259  10.0266
  11883.703  11883.700  0.500  0.956657  62.2765  23.9251  9.682308
  11884.594  11884.600  0.500  0.963888  61.9818  23.6403  9.556238
  11885.498  11885.500  0.500  0.954311  61.6066  23.7233  9.690471
  11886.395  11886.400  0.500  0.932033  61.6922  24.2915  10.0341
  11887.305  11887.300  0.500  0.905004  62.0411  25.0981  10.4427
  11888.209  11888.200  0.500  0.879198  62.157  25.8023  10.782
  11889.120  11889.100  0.500  0.855029  62.17  26.4391  11.0963
  11889.999  11890.000  0.500  0.834275  62.1486  26.9843  11.4056
  11890.898  11890.900  0.500  0.816028  62.1278  27.4719  11.7233
  11891.685  11891.700  0.500  0.802379  62.1033  27.8385  11.9686
  11894.720  11894.710  0.500  0.772399  62.0628  28.667  12.6387
  11897.898  11897.900  0.500  0.743175  61.9982  29.4864  13.2509
  11901.288  11901.260  0.500  0.680652  61.6878  31.2317  14.0807
  11904.784  11904.780  0.500  0.623310  61.8577  33.166  15.0699
  11908.504  11908.480  0.500  0.597770  61.8492  34.0194  15.5915
  11912.357  11912.350  0.500  0.596542  61.8013  34.0348  15.5976
  11916.428  11916.400  0.500  0.608316  61.51  33.4778  15.0961
  11920.632  11920.610  0.500  0.635224  61.6743  32.6761  14.5976
  11925.000  11924.990  0.500  0.664384  61.6345  31.7165  14.0577
  11929.570  11929.550  0.500  0.687841  61.5692  30.9484  13.5308
  11934.285  11934.280  0.500  0.705255  61.268  30.2653  13.1573
  11939.178  11939.180  0.500  0.713397  61.4149  30.0919  13.0385
  11944.262  11944.250  0.500  0.720472  61.3564  29.8513  12.8983
  11949.499  11949.490  0.500  0.723723  61.2838  29.7192  12.8296
  11954.908  11954.910  0.500  0.722111  61.2078  29.7302  12.9353
  11960.479  11960.490  0.500  0.716880  61.1306  29.8484  13.0513
  11966.266  11966.250  0.500  0.707987  61.0482  30.0745  13.2194
  11972.184  11972.180  0.500  0.694739  60.9539  30.4285  13.429
  11978.245  11978.280  0.500  0.681102  60.8676  30.8026  13.6457
  11984.612  11984.550  0.500  0.669535  60.7655  31.1087  13.8555
  11991.156  11990.990  0.500  0.662575  60.6697  31.2766  13.9944
  11997.612  11997.600  0.500  0.659646  60.5787  31.3213  14.0367
  12004.396  12004.390  0.500  0.659169  60.5007  31.2959  13.998
  12011.363  12011.350  0.500  0.658906  60.4073  31.2558  13.9195
  12018.465  12018.470  0.500  0.659627  60.314  31.185  13.8381
  12025.782  12025.770  0.500  0.661692  60.2199  31.0721  13.7558
  12033.247  12033.250  0.500  0.664203  60.1188  30.9421  13.6797
  12040.905  12040.890  0.500  0.666969  60.0088  30.8002  13.6245
  12048.711  12048.700  0.500  0.666584  58.1871  29.8767  13.2505
  12056.693  12056.690  0.500  0.664172  59.7716  30.7644  13.6917
  12064.856  12064.850  0.500  0.660735  59.6698  30.8178  13.7521
  12073.183  12073.170  0.500  0.656814  59.5612  30.8825  13.7949
  12081.667  12081.670  0.500  0.652224  59.4383  30.9606  13.8524
  12090.348  12090.350  0.500  0.647698  59.3141  31.036  13.9188
  12099.202  12099.190  0.500  0.643250  59.2162  31.1229  13.9799
  12108.196  12108.200  0.500  0.639428  59.0971  31.1792  14.0299
  12117.402  12117.390  0.500  0.636024  58.9805  31.2239  14.0869
  12126.762  12126.750  0.500  0.633300  58.8422  31.2356  14.1153
  12136.273  12136.270  0.500  0.630619  58.7346  31.2622  14.1313
  12145.965  12145.970  0.500  0.627715  58.6091  31.2861  14.1234
  12155.860  12155.850  0.500  0.624818  58.468  31.3014  14.1084
  12165.906  12165.890  0.500  0.621873  58.3396  31.3247  14.1263
  12176.118  12176.100  0.500  0.619061  58.2004  31.338  14.1729
  12186.502  12186.490  0.500  0.615835  58.0539  31.3601  14.2332
  12197.060  12197.050  0.500  0.612761  57.9149  31.3814  14.2842
  12207.799  12207.780  0.500  0.609484  57.7829  31.4126  14.3202
  12218.700  12218.680  0.500  0.606192  57.8503  31.5529  14.394
  12229.764  12229.750  0.500  0.602394  57.7054  31.5937  14.4196
  12241.024  12240.990  0.500  0.598725  57.5097  31.6023  14.4486
  12252.430  12252.410  0.500  0.594883  57.391  31.6584  14.5159
  12264.008  12263.990  0.500  0.590843  56.3146  31.1904  14.3508
  12275.759  12275.750  0.500  0.586884  57.0887  31.7446  14.6326
  12287.697  12287.680  0.500  0.582727  56.8896  31.7656  14.6545
  12299.804  12299.780  0.500  0.578515  56.5698  31.7204  14.6314
  12312.081  12312.050  0.500  0.574618  56.5784  31.8491  14.6993
  12324.514  12324.490  0.500  0.570732  56.2972  31.8142  14.6984
  12337.119  12337.110  0.500  0.566781  56.2444  31.9102  14.7807
  12349.903  12349.890  0.500  0.562752  55.9464  31.8693  14.8027
  12362.873  12362.850  0.500  0.559082  55.9131  31.9674  14.8875
  12376.018  12375.980  0.500  0.555450  55.7605  31.9962  14.9248
  12389.272  12389.280  0.500  0.551857  55.6082  32.0236  14.9594
  12402.762  12402.750  0.500  0.547986  55.4271  32.0431  14.9826
  12416.430  12416.400  0.500  0.544021  55.2313  32.0568  15.0191
  12430.243  12430.210  0.500  0.539987  55.0419  32.076  15.0621
  12444.221  12444.200  0.500  0.535788  54.9136  32.1359  15.1308
  12458.367  12458.360  0.500  0.531496  54.7296  32.1659  15.1767
  12472.716  12472.690  0.500  0.527190  54.5477  32.1974  15.2159
  12487.213  12487.190  0.500  0.522789  54.1385  32.0968  15.1824
  12501.880  12501.860  0.500  0.518265  54.189  32.2724  15.2832
  12516.726  12516.700  0.500  0.514077  53.9957  32.2922  15.3205
  12531.744  12531.720  0.500  0.509798  53.8032  32.3151  15.3651
  12546.923  12546.900  0.500  0.505780  53.632  32.342  15.4169
  12562.290  12562.260  0.500  0.501661  53.4386  32.3583  15.4603
  12577.833  12577.790  0.500  0.497739  53.2199  32.3526  15.4854
  12593.540  12593.490  0.500  0.493615  53.0463  32.3803  15.525
  12609.425  12609.360  0.500  0.489603  52.8523  32.3916  15.5583
  12625.434  12625.410  0.500  0.485414  52.6407  32.3973  15.5907
  12641.651  12641.620  0.500  0.481226  52.4098  32.3906  15.6262
  12658.051  12658.010  0.500  0.476799  52.2588  32.4405  15.6828
  12674.619  12674.570  0.500  0.472369  52.0559  32.4581  15.7244
  12691.323  12691.300  0.500  0.467766  51.8466  32.4767  15.7599
  12708.254  12708.200  0.500  0.463280  51.6434  32.4949  15.7947
  12719.600  12719.560  0.500  0.460387  51.4997  32.4983  15.8154