File: xdidata/Data/As/As-K-SodiumMetaArsenite.xdi
# XDI/1.0 BlueSky/1.10.0 BMM/2023-1.0-py310-tiled
# Beamline.name: BMM (06BM) -- Beamline for Materials Measurement (NIST)
# Beamline.xray_source: NSLS-II three-pole wiggler
# Beamline.collimation: paraboloid mirror, 5 nm Rh on 30 nm Pt
# Beamline.focusing: not in use
# Beamline.harmonic_rejection: flat mirror, Pt stripe, pitch = 7.0 mrad relative to beam
# Beamline.software: Bluesky 1.10.0, Ophyd 1.7.0, DataBroker 2.0.0b13, Python 3.10.8, 2023-1.0-py310-tiled
# Detector.I0: 10 cm N2
# Detector.I1: 25 cm N2
# Detector.I2: 25 cm N2
# Element.symbol: As
# Element.edge: K
# Element.reference: As
# Element.reference_material: As2O3
# Facility.name: NSLS-II
# Facility.energy: 3.0
# Facility.current: 400.2
# Facility.mode: top-off
# Facility.GUP: 301027
# Facility.SAF: 310583
# Facility.cycle: 2023-2
# Mono.name: Si(111)
# Mono.d_spacing: 3.13519
# Mono.encoder_resolution: 0.0000050 deg/ct
# Mono.angle_offset: 16.0754 deg
# Mono.scan_mode: pseudo channel cut
# Mono.scan_type: step
# Mono.direction: forward in energy
# Sample.name: NaAsO2
# Sample.prep: powder in PEG pellet
# Sample.x: 115.008 mm
# Sample.y: 114.461 mm
# Sample.SDD_position: 170.000 mm
# Scan.experimenters: Bruce Ravel
# Scan.edge_energy: 11866.7
# Scan.start_time: 2023-07-10T16:28:30
# Scan.end_time: 2023-07-10T16:36:25
# Scan.transient_id: 90286
# Scan.uid: 9d345a00-46ad-417e-9e0f-1206f92e57f2
# Scan.plot_hint: ln(I0/It)  --  ln($5/$6)
# Column.1: energy eV
# Column.2: requested_energy eV
# Column.3: measurement_time seconds
# Column.4: xmu
# Column.5: I0 nA
# Column.6: It nA
# Column.7: Ir nA
# ///////////
# sample courtesy Evan Jahrman, NIST
# -----------
# energy  requested_energy  measurement_time  xmu  I0  It  Ir
  11666.689  11666.700  0.500  -0.037501  64.974  67.4569  45.8213
  11696.742  11696.700  0.500  -0.042075  64.6177  67.3945  45.9043
  11726.767  11726.700  0.500  -0.046634  64.2044  67.2695  45.9444
  11756.744  11756.700  0.500  -0.051140  63.6848  67.0264  45.8802
  11786.744  11786.700  0.500  -0.055402  63.3927  67.0039  45.9691
  11816.748  11816.700  0.500  -0.059444  62.9567  66.8126  45.8862
  11838.692  11838.700  0.500  -0.061515  62.6929  66.6706  45.6963
  11844.696  11844.700  0.500  -0.061562  62.6029  66.5779  45.5457
  11850.694  11850.700  0.500  -0.061148  62.5142  66.4561  45.2732
  11856.687  11856.700  0.500  -0.059365  62.2699  66.0785  44.625
  11857.555  11857.600  0.500  -0.058888  62.3709  66.1541  44.581
  11858.467  11858.500  0.500  -0.058273  62.3697  66.1122  44.4431
  11859.385  11859.400  0.500  -0.057466  62.1639  65.8408  44.1205
  11860.285  11860.300  0.500  -0.056536  62.0266  65.6344  43.8255
  11861.185  11861.200  0.500  -0.055362  62.1321  65.6688  43.6509
  11862.085  11862.100  0.500  -0.053957  62.228  65.6779  43.4321
  11862.973  11863.000  0.500  -0.052218  62.1264  65.4568  43.0055
  11863.873  11863.900  0.500  -0.049889  62.1793  65.3601  42.5897
  11864.773  11864.800  0.500  -0.046896  62.278  65.2681  42.0802
  11865.699  11865.700  0.500  -0.042525  62.3008  65.0073  41.297
  11866.593  11866.600  0.500  -0.036526  62.2774  64.5942  40.2311
  11867.494  11867.500  0.500  -0.027183  62.2594  63.975  38.7123
  11868.401  11868.400  0.500  -0.012718  62.2368  63.0334  36.5831
  11869.278  11869.300  0.500  0.011337  62.2205  61.519  33.5766
  11870.185  11870.200  0.500  0.058729  62.1786  58.6321  29.0778
  11871.099  11871.100  0.500  0.156608  62.0286  53.0369  22.8756
  11872.013  11872.000  0.500  0.318312  62.0669  45.146  16.503
  11872.896  11872.900  0.500  0.446142  62.1568  39.7861  12.8753
  11873.804  11873.800  0.500  0.429386  62.1706  40.4674  13.0599
  11874.688  11874.700  0.500  0.349137  62.1564  43.8387  14.9698
  11875.596  11875.600  0.500  0.295288  62.1378  46.2502  16.4932
  11876.492  11876.500  0.500  0.263513  62.1221  47.7314  17.5289
  11877.407  11877.400  0.500  0.232551  62.0972  49.2126  18.7568
  11878.321  11878.300  0.500  0.204545  62.0748  50.5921  20.2001
  11879.200  11879.200  0.500  0.189038  62.1132  51.4146  21.3799
  11880.096  11880.100  0.500  0.186618  62.2621  51.6627  22.0233
  11880.993  11881.000  0.500  0.192222  62.2438  51.3589  21.9984
  11881.878  11881.900  0.500  0.198499  62.2228  51.0202  21.4961
  11882.799  11882.800  0.500  0.199864  62.2061  50.937  20.8642
  11883.721  11883.700  0.500  0.194148  62.1617  51.1924  20.58
  11884.606  11884.600  0.500  0.183328  61.8578  51.4963  20.6963
  11885.504  11885.500  0.500  0.169905  61.5015  51.8916  21.0887
  11886.395  11886.400  0.500  0.156812  61.62  52.6768  21.6585
  11887.287  11887.300  0.500  0.146607  61.9543  53.5058  22.1642
  11888.191  11888.200  0.500  0.140789  62.0985  53.9433  22.4477
  11889.095  11889.100  0.500  0.139242  62.1177  54.0435  22.5965
  11890.012  11890.000  0.500  0.139889  62.1202  54.0107  22.743
  11890.904  11890.900  0.500  0.140801  62.1099  53.9526  22.9439
  11891.710  11891.700  0.500  0.140908  62.1032  53.9409  23.1127
  11894.714  11894.710  0.500  0.134951  62.0709  54.235  23.8326
  11897.923  11897.900  0.500  0.121815  62.0247  54.9112  24.6024
  11901.282  11901.260  0.500  0.113570  61.7243  55.0977  24.7759
  11904.796  11904.780  0.500  0.106734  61.904  55.6372  25.2198
  11908.486  11908.480  0.500  0.100440  61.9092  55.9931  25.6018
  11912.363  11912.350  0.500  0.100438  61.8505  55.9401  25.5685
  11916.416  11916.400  0.500  0.104934  61.5634  55.4307  24.9277
  11920.620  11920.610  0.500  0.111017  61.7367  55.2496  24.6059
  11925.019  11924.990  0.500  0.118722  61.7081  54.8002  24.2085
  11929.545  11929.550  0.500  0.124299  61.6366  54.4323  23.7204
  11934.285  11934.280  0.500  0.129214  61.3174  53.8849  23.3429
  11939.191  11939.180  0.500  0.132301  61.4698  53.8523  23.2507
  11944.268  11944.250  0.500  0.133727  61.4243  53.7357  23.1351
  11949.493  11949.490  0.500  0.133076  61.3549  53.71  23.1023
  11954.908  11954.910  0.500  0.130220  61.2751  53.7935  23.321
  11960.491  11960.490  0.500  0.124710  61.1973  54.0221  23.5381
  11966.229  11966.250  0.500  0.119689  61.1141  54.2202  23.7572
  11972.146  11972.180  0.500  0.115435  61.0134  54.3617  23.9149
  11978.345  11978.280  0.500  0.111994  60.916  54.462  24.0542
  11984.512  11984.550  0.500  0.109968  60.8104  54.4777  24.1902
  11990.962  11990.990  0.500  0.108476  60.7287  54.4858  24.3063
  11997.581  11997.600  0.500  0.106986  60.6313  54.4795  24.3392
  12004.365  12004.390  0.500  0.106211  60.5406  54.4402  24.2755
  12011.338  12011.350  0.500  0.106063  60.4554  54.3717  24.1399
  12018.446  12018.470  0.500  0.106323  60.3697  54.2805  24.0078
  12025.763  12025.770  0.500  0.107572  60.2687  54.122  23.8834
  12033.235  12033.250  0.500  0.108337  60.1644  53.9871  23.7958
  12040.886  12040.890  0.500  0.108213  60.0508  53.8917  23.7647
  12048.711  12048.700  0.500  0.106602  58.2448  52.3553  23.1465
  12056.674  12056.690  0.500  0.104518  59.816  53.8797  23.9064
  12064.843  12064.850  0.500  0.101722  59.7201  53.944  23.9999
  12073.164  12073.170  0.500  0.098919  59.6038  53.9901  24.04
  12081.667  12081.670  0.500  0.096366  59.4869  54.0219  24.0995
  12090.348  12090.350  0.500  0.094575  59.3557  53.9994  24.1463
  12099.176  12099.190  0.500  0.093291  59.2603  53.9819  24.1797
  12108.196  12108.200  0.500  0.091599  59.1492  53.9719  24.214
  12117.395  12117.390  0.500  0.089605  59.0256  53.9667  24.2749
  12126.756  12126.750  0.500  0.088024  58.8895  53.9273  24.2962
  12136.273  12136.270  0.500  0.086649  58.7758  53.8974  24.292
  12145.991  12145.970  0.500  0.085342  58.6425  53.8454  24.2367
  12155.873  12155.850  0.500  0.084215  58.5102  53.7846  24.1714
  12165.906  12165.890  0.500  0.082950  58.372  53.7255  24.1571
  12176.124  12176.100  0.500  0.081342  58.2309  53.6818  24.205
  12186.496  12186.490  0.500  0.079249  58.2567  53.8182  24.3559
  12197.054  12197.050  0.500  0.076944  58.1079  53.8045  24.4215
  12207.786  12207.780  0.500  0.074637  57.9885  53.818  24.464
  12218.693  12218.680  0.500  0.072337  57.8459  53.8092  24.4726
  12229.757  12229.750  0.500  0.070340  57.6997  53.7805  24.4758
  12241.004  12240.990  0.500  0.068300  57.4958  53.7  24.4825
  12252.443  12252.410  0.500  0.066226  57.388  53.7106  24.5561
  12263.995  12263.990  0.500  0.064106  56.3006  52.8046  24.2265
  12275.765  12275.750  0.500  0.062055  57.0822  53.6476  24.656
  12287.697  12287.680  0.500  0.059884  56.882  53.5756  24.6479
  12299.804  12299.780  0.500  0.057992  56.5761  53.3884  24.5605
  12312.061  12312.050  0.500  0.056154  56.5845  53.4947  24.6181
  12324.494  12324.490  0.500  0.054232  56.2991  53.3272  24.5717
  12337.119  12337.110  0.500  0.052209  56.2415  53.3805  24.6562
  12349.910  12349.890  0.500  0.049917  55.9503  53.226  24.655
  12362.880  12362.850  0.500  0.047600  55.9228  53.3232  24.7669
  12376.005  12375.980  0.500  0.045181  55.7649  53.3014  24.8016
  12389.292  12389.280  0.500  0.042977  55.6125  53.2731  24.8187
  12402.776  12402.750  0.500  0.040737  55.4381  53.2251  24.8241
  12416.430  12416.400  0.500  0.038356  55.2327  53.1543  24.8368
  12430.229  12430.210  0.500  0.036158  55.0521  53.0971  24.8692
  12444.221  12444.200  0.500  0.033842  54.9179  53.0904  24.9326
  12458.367  12458.360  0.500  0.031467  54.7332  53.0377  24.9594
  12472.716  12472.690  0.500  0.029284  54.5572  52.9827  24.973
  12487.226  12487.190  0.500  0.026926  54.1504  52.7118  24.8705
  12501.901  12501.860  0.500  0.024828  54.2039  52.8747  24.9771
  12516.719  12516.700  0.500  0.022514  54.0086  52.8062  24.9893
  12531.758  12531.720  0.500  0.020184  53.8153  52.74  25.017
  12546.950  12546.900  0.500  0.017694  53.639  52.6983  25.0592
  12562.311  12562.260  0.500  0.015273  53.4463  52.6362  25.0858
  12577.826  12577.790  0.500  0.012840  53.2333  52.5541  25.0957
  12593.519  12593.490  0.500  0.010420  53.0595  52.5094  25.1156
  12609.383  12609.360  0.500  0.007994  52.8615  52.4406  25.1243
  12625.475  12625.410  0.500  0.005483  52.6554  52.3675  25.1384
  12641.651  12641.620  0.500  0.003200  52.4253  52.2578  25.1452
  12658.051  12658.010  0.500  0.000735  52.2787  52.2402  25.1979
  12674.626  12674.570  0.500  -0.001634  52.0771  52.1623  25.2106
  12691.316  12691.300  0.500  -0.004167  51.872  52.0886  25.2203
  12708.233  12708.200  0.500  -0.006688  51.6602  52.0069  25.2182
  12719.579  12719.560  0.500  -0.008198  51.5236  51.9477  25.2197