File: xdidata/Ho/Ho-L1-HolmiumOxide.xdi
# XDI/1.0 BlueSky/1.10.0 BMM/2023-1.0-py310-tiled
# Beamline.name: BMM (06BM) -- Beamline for Materials Measurement (NIST)
# Beamline.xray_source: NSLS-II three-pole wiggler
# Beamline.collimation: paraboloid mirror, 5 nm Rh on 30 nm Pt
# Beamline.focusing: not in use
# Beamline.harmonic_rejection: flat mirror, Pt stripe, pitch = 7.0 mrad relative to beam
# Beamline.software: Bluesky 1.10.0, Ophyd 1.7.0, DataBroker 2.0.0b13, Python 3.10.8, 2023-1.0-py310-tiled
# Detector.I0: 10 cm N2
# Detector.I1: 25 cm N2
# Detector.I2: 25 cm N2
# Element.symbol: Ho
# Element.edge: L1
# Element.reference: Ho
# Element.reference_material: Ho2O3
# Facility.name: NSLS-II
# Facility.energy: 3.0
# Facility.current: 400.3
# Facility.mode: top-off
# Facility.GUP: 301027
# Facility.SAF: 310583
# Facility.cycle: 2023-2
# Mono.name: Si(111)
# Mono.d_spacing: 3.13519
# Mono.encoder_resolution: 0.0000050 deg/ct
# Mono.angle_offset: 16.0754 deg
# Mono.scan_mode: pseudo channel cut
# Mono.scan_type: step
# Mono.direction: forward in energy
# Sample.name: Ho2O3
# Sample.prep: PEG pellet
# Sample.x: 109.138 mm
# Sample.y: 153.150 mm
# Sample.SDD_position: 205.000 mm
# Scan.experimenters: Bruce Ravel
# Scan.edge_energy: 9394.2
# Scan.start_time: 2023-05-28T16:33:09
# Scan.end_time: 2023-05-28T16:41:12
# Scan.transient_id: 78840
# Scan.uid: e87cc0de-36a7-4f5a-bb9b-7a62903ff800
# Scan.plot_hint: ln(It/Ir)  --  ln($6/$7)
# Column.1: energy eV
# Column.2: requested_energy eV
# Column.3: measurement_time seconds
# Column.4: xmu
# Column.5: I0 nA
# Column.6: It nA
# Column.7: Ir nA
# ///////////
# sample courtesy Martin Stennett, University of Sheffield
# -----------
# energy  requested_energy  measurement_time  xmu  I0  It  Ir
  9194.213  9194.200  0.500  1.146384  112.773  161.076  51.1873
  9224.201  9224.200  0.500  1.136086  112.177  160.726  51.6049
  9254.220  9254.200  0.500  1.127073  111.631  160.439  51.9791
  9284.246  9284.200  0.500  1.118124  111.115  160.18  52.3618
  9314.237  9314.200  0.500  1.109713  110.67  159.974  52.736
  9344.238  9344.200  0.500  1.100485  110.115  159.669  53.1233
  9366.188  9366.200  0.500  1.094180  109.75  159.452  53.3866
  9372.182  9372.200  0.500  1.092913  109.582  159.297  53.4024
  9378.185  9378.200  0.500  1.091725  109.493  159.271  53.4571
  9384.188  9384.200  0.500  1.090927  109.366  159.173  53.4669
  9385.065  9385.100  0.500  1.090837  109.325  159.127  53.4563
  9385.974  9386.000  0.500  1.090761  109.345  159.187  53.4806
  9386.878  9386.900  0.500  1.090734  109.283  159.109  53.4559
  9387.783  9387.800  0.500  1.090678  109.277  159.106  53.4579
  9388.692  9388.700  0.500  1.090798  109.256  159.082  53.4433
  9389.582  9389.600  0.500  1.090741  109.223  159.034  53.4303
  9390.484  9390.500  0.500  1.090841  109.184  159.011  53.4171
  9391.389  9391.400  0.500  1.090954  109.167  159.015  53.4126
  9392.284  9392.300  0.500  1.091082  109.135  158.972  53.3912
  9393.193  9393.200  0.500  1.091383  109.128  158.963  53.372
  9394.092  9394.100  0.500  1.091893  109.079  158.919  53.3303
  9395.021  9395.000  0.500  1.092625  109.082  158.918  53.2908
  9395.901  9395.900  0.500  1.093809  109.055  158.892  53.2191
  9396.769  9396.800  0.500  1.095466  108.986  158.821  53.1072
  9397.733  9397.700  0.500  1.097735  109.347  159.352  53.1639
  9398.625  9398.600  0.500  1.099711  109.356  159.368  53.0644
  9399.513  9399.500  0.500  1.101592  109.33  159.341  52.9557
  9400.409  9400.400  0.500  1.103504  109.329  159.346  52.8562
  9401.305  9401.300  0.500  1.105438  109.272  159.314  52.7434
  9402.194  9402.200  0.500  1.107354  109.251  159.266  52.6266
  9403.105  9403.100  0.500  1.109340  109.225  159.243  52.5145
  9404.014  9404.000  0.500  1.111535  109.21  159.243  52.3995
  9404.907  9404.900  0.500  1.113950  109.178  159.211  52.2624
  9405.807  9405.800  0.500  1.116582  109.146  159.153  52.1063
  9406.708  9406.700  0.500  1.119626  109.129  159.183  51.9577
  9407.602  9407.600  0.500  1.123018  109.109  159.16  51.7742
  9408.495  9408.500  0.500  1.126811  109.088  159.13  51.5685
  9409.393  9409.400  0.500  1.130406  109.061  159.114  51.3782
  9410.291  9410.300  0.500  1.133242  109.058  159.109  51.2311
  9411.208  9411.200  0.500  1.135041  108.992  159.058  51.1228
  9412.106  9412.100  0.500  1.135492  108.999  159.068  51.1027
  9413.005  9413.000  0.500  1.135020  108.961  158.998  51.1044
  9413.907  9413.900  0.500  1.134149  108.948  158.997  51.1487
  9414.806  9414.800  0.500  1.133322  108.913  158.981  51.1859
  9415.697  9415.700  0.500  1.132846  108.913  158.996  51.2151
  9416.596  9416.600  0.500  1.132660  108.914  159.006  51.2277
  9417.495  9417.500  0.500  1.132755  108.815  158.88  51.1823
  9418.399  9418.400  0.500  1.132881  108.847  158.927  51.1909
  9419.199  9419.200  0.500  1.132914  108.796  158.865  51.1694
  9422.224  9422.210  0.500  1.131827  108.741  158.847  51.2193
  9425.420  9425.400  0.500  1.127767  108.697  158.825  51.4203
  9428.776  9428.760  0.500  1.122131  108.654  158.819  51.709
  9432.287  9432.280  0.500  1.116992  108.562  158.72  51.9433
  9436.001  9435.980  0.500  1.113783  108.447  158.615  52.0755
  9439.857  9439.850  0.500  1.112289  108.415  158.638  52.1611
  9443.912  9443.900  0.500  1.111702  108.368  158.601  52.1796
  9448.117  9448.110  0.500  1.111599  108.268  158.535  52.1631
  9452.499  9452.490  0.500  1.111854  108.18  158.472  52.1292
  9457.059  9457.050  0.500  1.112782  108.077  158.374  52.0485
  9461.794  9461.780  0.500  1.113947  108.005  158.357  51.9825
  9466.685  9466.680  0.500  1.114360  107.905  158.25  51.9258
  9471.750  9471.750  0.500  1.112913  107.791  158.173  51.9756
  9477.004  9476.990  0.500  1.109443  107.693  158.103  52.1333
  9482.415  9482.410  0.500  1.105895  107.609  158.044  52.2992
  9488.011  9487.990  0.500  1.103653  107.498  157.951  52.3857
  9493.766  9493.750  0.500  1.102303  107.398  157.926  52.4482
  9499.695  9499.680  0.500  1.100449  107.233  157.733  52.4813
  9505.788  9505.780  0.500  1.097830  107.131  157.677  52.6002
  9512.061  9512.050  0.500  1.095401  107.037  157.644  52.7169
  9518.498  9518.490  0.500  1.093338  106.907  157.541  52.7914
  9525.113  9525.100  0.500  1.092119  106.784  157.437  52.821
  9531.910  9531.890  0.500  1.091665  106.66  157.371  52.8227
  9538.870  9538.850  0.500  1.090660  106.54  157.268  52.8412
  9545.986  9545.970  0.500  1.088649  106.43  157.224  52.9328
  9553.291  9553.270  0.500  1.086397  106.243  157.035  52.9883
  9560.752  9560.750  0.500  1.083147  106.143  157.003  53.1499
  9568.404  9568.390  0.500  1.079965  105.967  156.829  53.2603
  9576.219  9576.200  0.500  1.078102  106.164  157.237  53.4983
  9584.205  9584.190  0.500  1.076260  106.08  157.235  53.5965
  9592.356  9592.350  0.500  1.074053  105.882  157.057  53.6539
  9600.700  9600.670  0.500  1.071420  105.758  156.99  53.7723
  9609.179  9609.170  0.500  1.068647  105.616  156.888  53.8867
  9617.865  9617.850  0.500  1.066087  105.205  156.369  53.846
  9626.707  9626.690  0.500  1.064182  105.265  156.597  54.0274
  9635.722  9635.700  0.500  1.062348  104.9  156.194  53.9876
  9644.891  9644.890  0.500  1.060019  104.921  156.333  54.1615
  9654.267  9654.250  0.500  1.057304  104.726  156.169  54.2516
  9663.774  9663.770  0.500  1.054358  104.561  156.045  54.3686
  9673.491  9673.470  0.500  1.051312  104.354  155.861  54.4701
  9683.382  9683.350  0.500  1.048362  104.169  155.711  54.5783
  9693.403  9693.390  0.500  1.045777  103.973  155.554  54.6645
  9703.624  9703.600  0.500  1.043141  103.745  155.361  54.741
  9714.014  9713.990  0.500  1.040209  103.58  155.208  54.8476
  9724.574  9724.550  0.500  1.037312  103.381  155.033  54.9446
  9735.297  9735.280  0.500  1.034652  103.162  154.859  55.029
  9746.200  9746.180  0.500  1.031857  102.947  154.674  55.1173
  9757.267  9757.250  0.500  1.028875  102.737  154.514  55.2246
  9768.497  9768.490  0.500  1.025982  102.495  154.299  55.3075
  9779.918  9779.910  0.500  1.022925  102.246  154.047  55.3863
  9791.499  9791.490  0.500  1.019623  101.836  153.567  55.3964
  9803.266  9803.250  0.500  1.016326  100.303  151.379  54.7874
  9815.200  9815.180  0.500  1.013210  101.604  153.51  55.7319
  9827.305  9827.280  0.500  1.010030  101.36  153.283  55.8269
  9839.562  9839.550  0.500  1.007116  101.116  153.07  55.912
  9852.006  9851.990  0.500  1.004078  100.876  152.859  56.005
  9864.629  9864.610  0.500  1.000885  100.617  152.605  56.0905
  9877.416  9877.390  0.500  0.997426  100.347  152.352  56.1915
  9890.372  9890.350  0.500  0.993974  100.046  152.056  56.2765
  9903.494  9903.480  0.500  0.990554  99.7975  151.806  56.3764
  9916.788  9916.780  0.500  0.987254  99.5341  151.56  56.4709
  9930.272  9930.250  0.500  0.984045  99.1411  151.109  56.4839
  9943.922  9943.900  0.500  0.980764  99.0184  151.089  56.6622
  9957.760  9957.710  0.500  0.977048  98.6342  150.672  56.7161
  9971.745  9971.700  0.500  0.973272  98.5319  150.664  56.9276
  9985.887  9985.860  0.500  0.970091  96.6843  147.995  56.0971
  10000.226  10000.190  0.500  0.966631  95.6872  146.623  55.7697
  10014.732  10014.690  0.500  0.963107  95.8423  147.026  56.1206
  10029.386  10029.360  0.500  0.959585  97.2407  149.317  57.196
  10044.237  10044.200  0.500  0.955910  97.0288  149.154  57.3442
  10059.259  10059.220  0.500  0.952033  96.6925  148.781  57.4228
  10074.433  10074.400  0.500  0.948443  96.3617  148.436  57.4959
  10089.794  10089.760  0.500  0.944871  93.7142  144.524  56.1807
  10105.314  10105.290  0.500  0.941390  95.6928  147.741  57.6317
  10121.012  10120.990  0.500  0.937739  95.3747  147.412  57.7138
  10136.888  10136.860  0.500  0.933916  95.0129  146.992  57.7696
  10152.944  10152.910  0.500  0.929978  94.7073  146.7  57.8822
  10169.146  10169.120  0.500  0.926179  94.3637  146.332  57.9568
  10185.532  10185.510  0.500  0.922499  94.0223  145.979  58.0302
  10202.097  10202.070  0.500  0.918736  93.667  145.59  58.0938
  10218.826  10218.800  0.500  0.914951  93.293  145.178  58.1492
  10235.729  10235.700  0.500  0.911138  93.2069  145.205  58.3821
  10247.088  10247.060  0.500  0.908447  92.9952  144.979  58.4482