File: xdidata/Ce/Ce-L3-CePO4.xdi
# XDI/1.0 BlueSky/1.10.0 BMM/2023-1.0-py310-tiled
# Beamline.name: BMM (06BM) -- Beamline for Materials Measurement (NIST)
# Beamline.xray_source: NSLS-II three-pole wiggler
# Beamline.collimation: paraboloid mirror, 5 nm Rh on 30 nm Pt
# Beamline.focusing: not in use
# Beamline.harmonic_rejection: flat mirror, Si stripe, pitch = 7.0 mrad relative to beam
# Beamline.software: Bluesky 1.10.0, Ophyd 1.7.0, DataBroker 2.0.0b13, Python 3.10.8, 2023-1.0-py310-tiled
# Detector.I0: 10 cm N2
# Detector.I1: 25 cm N2
# Detector.I2: 25 cm N2
# Detector.fluorescence: SII Vortex ME4 (4-element silicon drift)
# Detector.deadtime_correction: Xspress3
# Element.symbol: Ce
# Element.edge: L3
# Element.reference: Ce
# Element.reference_material: CeO2
# Facility.name: NSLS-II
# Facility.energy: 3.0
# Facility.current: 399.7
# Facility.mode: top-off
# Facility.GUP: 123456
# Facility.SAF: 301027
# Facility.cycle: 2023-2
# Mono.name: Si(111)
# Mono.d_spacing: 3.13519
# Mono.encoder_resolution: 0.0000050 deg/ct
# Mono.angle_offset: 16.0754 deg
# Mono.scan_mode: pseudo channel cut
# Mono.scan_type: step
# Mono.direction: forward in energy
# Sample.name: CePO4
# Sample.prep: Powder in PEG pellet
# Sample.x: 142.329 mm
# Sample.y: 114.126 mm
# Sample.SDD_position: 45.000 mm
# Scan.experimenters: Bruce Ravel
# Scan.edge_energy: 5723.4
# Scan.start_time: 2023-05-06T10:21:46
# Scan.end_time: 2023-05-06T10:27:21
# Scan.transient_id: 74713
# Scan.uid: 49e11b13-9b92-45fb-bd7d-4114cf49d392
# Scan.plot_hint: (Ce1+Ce2+Ce3+Ce4)/I0  --  ($8+$9+$10+$11)/$5
# Column.1: energy eV
# Column.2: requested_energy eV
# Column.3: measurement_time seconds
# Column.4: xmu
# Column.5: I0 nA
# Column.6: It nA
# Column.7: Ir nA
# Column.8: Ce1
# Column.9: Ce2
# Column.10: Ce3
# Column.11: Ce4
# ///////////
# sample courtesy Martin Stennett, University of Sheffield
# -----------
# energy  requested_energy  measurement_time  xmu  I0  It  Ir  Ce1  Ce2  Ce3  Ce4
  5523.433  5523.400  0.500  1.611536  109.224  1.043833  0.077932  31.0029  49.0047  47.0056  49.0054
  5553.410  5553.400  0.500  1.668821  110.269  1.143744  0.088923  49.0047  39.0039  54.0066  42.0048
  5583.404  5583.400  0.500  2.123507  111.149  1.248004  0.100901  55.0054  57.0058  55.007  69.0081
  5613.386  5613.400  0.500  2.497230  111.736  1.357566  0.114413  53.0053  69.0071  71.009  86.0102
  5643.398  5643.400  0.500  4.922405  112.154  1.471488  0.128605  107.011  142.015  144.019  159.02
  5673.395  5673.400  0.500  11.9701  112.377  1.585728  0.144084  318.034  336.035  337.044  354.044
  5695.395  5695.400  0.500  33.6757  112.35  1.654526  0.154257  883.103  1020.12  972.137  908.122
  5701.393  5701.400  0.500  46.5129  112.307  1.663727  0.156307  1309.17  1207.15  1373.2  1334.19
  5707.400  5707.400  0.500  78.6055  112.655  1.659316  0.156907  2211.31  2275.32  2165.36  2203.35
  5713.397  5713.400  0.500  153.332  112.639  1.596859  0.152004  4164.7  4412.75  4334.84  4358.83
  5714.890  5714.900  0.500  191.435  112.604  1.559738  0.148885  5339.14  5638.07  5344.15  5235.07
  5716.387  5716.400  0.500  243.236  112.571  1.498038  0.143038  6701.66  7075.49  6835.61  6768.57
  5717.891  5717.900  0.500  336.976  112.568  1.395554  0.133406  9352.22  9763.45  9492.64  9324.54
  5719.393  5719.400  0.500  459.953  112.525  1.265224  0.120663  12780.6  13446.1  12842.3  12687.1
  5720.890  5720.900  0.500  619.604  112.52  1.109955  0.105903  17307.8  18199.7  17396  16814.6
  5722.395  5722.400  0.500  900.675  112.487  0.851045  0.081432  24802.4  26317  25237.4  24957
  5723.896  5723.900  0.500  1462.48  112.476  0.469676  0.044831  40708.8  42423.6  41094.4  40266.5
  5725.398  5725.400  0.500  2125.74  112.439  0.168560  0.016034  55538.2  57832.8  63624.9  62019.2
  5726.898  5726.900  0.500  2539.83  112.433  0.101411  0.009338  70042.5  73264.6  71847.9  70406.1
  5728.398  5728.400  0.500  2223.66  112.414  0.165971  0.015107  60966.9  64422.4  63122.6  61457.6
  5729.899  5729.900  0.500  1764.28  112.433  0.308180  0.027554  48802.7  51616.7  49475.5  48469.2
  5731.402  5731.400  0.500  1441.71  112.408  0.459822  0.040952  39865.7  41708.5  40893.4  39592.1
  5732.899  5732.900  0.500  1227.84  112.348  0.584671  0.052450  34067.4  35508.7  34785.5  33583.4
  5734.403  5734.400  0.500  1122.48  112.376  0.664531  0.060191  31105.5  32574.1  31392.5  31068.2
  5735.907  5735.900  0.500  1085.92  112.34  0.694659  0.062961  29992.8  31598  30288.1  30112.9
  5737.403  5737.400  0.500  1079.75  112.303  0.706123  0.063733  29688.5  31434.8  30332.4  29802.8
  5738.905  5738.900  0.500  1075.39  112.331  0.715404  0.064475  29592.1  31174.6  30226.3  29806.8
  5740.399  5740.400  0.500  1059.93  112.286  0.726629  0.066148  29149  31025.4  29587.6  29253.2
  5741.906  5741.900  0.500  1056.28  112.295  0.737480  0.067943  29102.7  30489.8  29725.7  29297.1
  5743.399  5743.400  0.500  1061.22  112.275  0.738832  0.069045  29560.2  30743.1  29314.3  29531.3
  5744.902  5744.900  0.500  1082.02  112.219  0.727140  0.068637  29756.7  31381.8  30634.5  29650.6
  5746.402  5746.400  0.500  1114.18  112.193  0.706960  0.066909  30762  32410  31277.6  30553.8
  5747.898  5747.900  0.500  1148.54  112.183  0.684127  0.065069  31728.1  33250.9  32110.3  31756.9
  5750.397  5750.390  0.500  1209.84  112.161  0.645453  0.061712  33180.8  35103.8  33962.5  33449.8
  5753.527  5753.520  0.500  1282.31  112.113  0.602386  0.057772  35513.6  36922.4  36035.9  35292.2
  5756.833  5756.820  0.500  1338.58  112.048  0.573824  0.055125  36806.2  38288  38060.6  36830.2
  5760.296  5760.290  0.500  1344.25  112.014  0.574329  0.055303  36944.5  39153.2  37322.1  37154.7
  5763.937  5763.930  0.500  1286.85  111.975  0.616129  0.059344  35667  36992.5  36241.2  35194.3
  5767.750  5767.740  0.500  1216.35  111.916  0.668182  0.064390  33199.6  34958.7  34207.6  33763.2
  5771.736  5771.730  0.500  1188.06  111.873  0.701651  0.067882  32778.5  34149.3  33231.9  32752.3
  5775.897  5775.890  0.500  1168.68  111.828  0.726697  0.070841  31997.8  33964.8  32798.2  31930.5
  5780.219  5780.210  0.500  1176.77  111.753  0.730682  0.071664  32149.1  34002.9  32852.4  32503.9
  5784.719  5784.710  0.500  1211.59  111.718  0.724679  0.071649  33598.5  34981  33783.4  32992.6
  5789.388  5789.380  0.500  1217.17  111.681  0.714896  0.071288  33498.5  35008.1  33919.7  33509.3
  5794.235  5794.230  0.500  1246.18  111.591  0.708463  0.070906  34414.5  35763.2  34864  34021.1
  5799.246  5799.240  0.500  1262.21  111.501  0.702440  0.070635  34683.4  36079.3  35273.3  34701.6
  5804.442  5804.430  0.500  1283.96  111.432  0.699274  0.070766  35278.8  36735.2  35978.3  35082.4
  5809.785  5809.780  0.500  1286.6  111.335  0.712192  0.072422  35188  36742.6  36037.6  35275.7
  5815.319  5815.310  0.500  1281.2  111.194  0.728104  0.074551  35384  36680.9  35420.6  34975.9
  5821.018  5821.010  0.500  1276.64  111.076  0.744485  0.076454  35178  36404  35217.4  35005
  5826.884  5826.880  0.500  1268.04  110.934  0.760517  0.078644  34549.1  36488  34999.3  34632.8
  5832.925  5832.920  0.500  1268.71  110.737  0.778011  0.080971  34356  36162.6  35388.3  34586.5
  5839.145  5839.140  0.500  1267.81  110.871  0.788298  0.082734  34665.3  36183.6  35155.5  34558.7
  5845.525  5845.520  0.500  1293.8  110.598  0.786603  0.083054  35371.6  36885.5  35814  35020.3
  5852.085  5852.080  0.500  1313.49  110.336  0.785865  0.083645  35818.2  37280  36245.9  35581
  5858.815  5858.810  0.500  1312.17  109.943  0.793254  0.085037  35731.7  37250  36061.6  35220.6
  5865.720  5865.710  0.500  1321.66  109.242  0.800171  0.086589  35490.7  37330.1  36167.7  35391.8
  5872.792  5872.780  0.500  1358.85  87.6408  0.645372  0.070516  29328.6  30672.9  29944.4  29144.8
  5880.025  5880.020  0.500  1336.54  109.939  0.829430  0.091094  36231.6  37661.7  37051.1  35992.7
  5887.447  5887.440  0.500  1322.64  109.24  0.847531  0.093978  35570.9  37178  36126.6  35610.1
  5895.027  5895.020  0.500  1334.36  108.651  0.862012  0.096247  35453.6  37531.6  36287  35708.2
  5902.792  5902.780  0.500  1329.19  107.891  0.872834  0.098176  35584  36903.8  35730.2  35189.7
  5910.723  5910.710  0.500  1348.11  106.718  0.877004  0.099396  35355.7  37174.9  36078.4  35259.6
  5918.821  5918.810  0.500  1356.87  106.642  0.887885  0.101677  35926.7  37599.5  35783.3  35389.8
  5927.078  5927.080  0.500  1368.25  106.016  0.894227  0.103253  35748.1  37384.5  36504.2  35419.2
  5935.533  5935.520  0.500  1371.33  106.069  0.910406  0.106319  35694.5  37544.5  36499.1  35716.4
  5944.160  5944.140  0.500  1393.53  98.4959  0.859059  0.101056  33733.9  35515.5  34290  33717.5
  5952.914  5952.920  0.500  1389.19  104.932  0.935951  0.111110  35950.4  37448.6  36593.4  35778.4
  5961.869  5961.880  0.500  1397.52  103.697  0.943466  0.113004  35911.8  37437.5  35964.5  35604.3
  5971.005  5971.010  0.500  1400.88  102.526  0.951399  0.115023  35143.6  37367.1  35901.1  35214.6
  5980.321  5980.310  0.500  1410.74  101.137  0.958547  0.117158  35254.2  37004.7  35219.5  35200.5
  5989.799  5989.780  0.500  1430.96  83.2122  0.804233  0.099342  29498  30928.1  29766.5  28880.6
  5999.436  5999.420  0.500  1423.84  99.9458  0.991787  0.123502  34901.3  36909.4  35752.9  34742.9
  6009.229  6009.240  0.500  1433.95  98.456  0.996837  0.125456  34929.8  36594.1  34997.4  34659.8
  6019.205  6019.220  0.500  1443.86  97.1113  1.002719  0.127363  34797.6  36295.4  35160.1  33962
  6029.390  6029.380  0.500  1458.94  95.7939  1.009953  0.129721  34551.3  36147.5  34877.8  34181.1
  6039.728  6039.710  0.500  1465.48  94.4092  1.017138  0.131968  33948.6  35659.9  34780.6  33965.8
  6050.192  6050.210  0.500  1478.59  93.0797  1.027339  0.134947  33985.2  35826.8  34367.2  33447.2
  6060.870  6060.880  0.500  1472.98  91.3884  1.033389  0.137101  33252.5  34806.8  33548  33005.6
  6071.709  6071.720  0.500  1490.75  89.9859  1.040423  0.139572  33104.5  34547.5  33520.1  32974.5
  6082.718  6082.740  0.500  1496.64  88.509  1.047016  0.141916  32522.9  34485.5  33007.8  32450
  6093.902  6093.920  0.500  1504.67  87.0574  1.054451  0.144436  32612.5  33885.5  32702.8  31792.1
  6105.260  6105.280  0.500  1514.94  85.5147  1.064969  0.147307  32008.6  33678.3  32017.4  31845.2
  6116.800  6116.810  0.500  1520.75  83.9204  1.072787  0.150117  31849.5  32949.5  31848.9  30974.1
  6128.498  6128.510  0.500  1530.63  82.2263  1.075328  0.152093  30792  32560.1  31275.2  31230.4
  6140.365  6140.380  0.500  1534.28  80.4092  1.076053  0.153774  30507.1  31833.7  30848.1  30181.4
  6152.410  6152.430  0.500  1521.09  78.279  1.058704  0.153238  29158.1  30795.7  29866.2  29249.6