File: xdidata/Ce/Ce-L1-CeriumDioxide.xdi
# XDI/1.0 BlueSky/1.10.0 BMM/2023-1.0-py310-tiled
# Beamline.name: BMM (06BM) -- Beamline for Materials Measurement (NIST)
# Beamline.xray_source: NSLS-II three-pole wiggler
# Beamline.collimation: paraboloid mirror, 5 nm Rh on 30 nm Pt
# Beamline.focusing: not in use
# Beamline.harmonic_rejection: flat mirror, Si stripe, pitch = 7.0 mrad relative to beam
# Beamline.software: Bluesky 1.10.0, Ophyd 1.7.0, DataBroker 2.0.0b13, Python 3.10.8, 2023-1.0-py310-tiled
# Detector.I0: 10 cm N2
# Detector.I1: 25 cm N2
# Detector.I2: 25 cm N2
# Element.symbol: Ce
# Element.edge: L1
# Element.reference: Ce
# Element.reference_material: CeO2
# Facility.name: NSLS-II
# Facility.energy: 3.0
# Facility.current: 400.5
# Facility.mode: top-off
# Facility.GUP: 301027
# Facility.SAF: 310583
# Facility.cycle: 2023-2
# Mono.name: Si(111)
# Mono.d_spacing: 3.13519
# Mono.encoder_resolution: 0.0000050 deg/ct
# Mono.angle_offset: 16.0754 deg
# Mono.scan_mode: pseudo channel cut
# Mono.scan_type: step
# Mono.direction: forward in energy
# Sample.name: CeO2
# Sample.prep: PEG pellet
# Sample.x: 109.138 mm
# Sample.y: 153.150 mm
# Sample.SDD_position: 205.000 mm
# Scan.experimenters: Bruce Ravel
# Scan.edge_energy: 6548.8
# Scan.start_time: 2023-05-28T12:36:40
# Scan.end_time: 2023-05-28T12:44:48
# Scan.transient_id: 78686
# Scan.uid: 7bb79308-2729-412a-b13a-0e3c914248a4
# Scan.plot_hint: ln(It/Ir)  --  ln($6/$7)
# Column.1: energy eV
# Column.2: requested_energy eV
# Column.3: measurement_time seconds
# Column.4: xmu
# Column.5: I0 nA
# Column.6: It nA
# Column.7: Ir nA
# ///////////
# sample courtesy Martin Stennett, University of Sheffield
# -----------
# energy  requested_energy  measurement_time  xmu  I0  It  Ir
  6348.798  6348.800  0.500  2.257862  152.954  113.956  11.9168
  6378.814  6378.800  0.500  2.226178  153.849  116.124  12.5344
  6408.826  6408.800  0.500  2.196327  154.525  118.21  13.1463
  6438.814  6438.800  0.500  2.166874  155  120.185  13.7654
  6468.810  6468.800  0.500  2.137718  155.351  122.007  14.3876
  6498.815  6498.800  0.500  2.109100  155.733  123.854  15.0293
  6520.777  6520.800  0.500  2.088314  156.464  125.578  15.5586
  6526.783  6526.800  0.500  2.082755  156.508  125.937  15.6901
  6532.791  6532.800  0.500  2.077157  156.558  126.355  15.8305
  6538.798  6538.800  0.500  2.071624  156.593  126.586  15.9475
  6539.685  6539.700  0.500  2.070841  156.569  126.619  15.964
  6540.586  6540.600  0.500  2.069967  156.554  126.699  15.9881
  6541.486  6541.500  0.500  2.069202  156.555  126.741  16.0057
  6542.388  6542.400  0.500  2.068388  156.553  126.786  16.0244
  6543.296  6543.300  0.500  2.067679  156.564  126.837  16.0422
  6544.189  6544.200  0.500  2.066930  156.561  126.907  16.0631
  6545.090  6545.100  0.500  2.066276  156.558  126.951  16.0791
  6545.995  6546.000  0.500  2.065613  156.578  127.008  16.0971
  6546.897  6546.900  0.500  2.064811  156.564  127.067  16.1175
  6547.795  6547.800  0.500  2.064088  156.562  127.083  16.1312
  6548.694  6548.700  0.500  2.063280  156.552  127.097  16.146
  6549.601  6549.600  0.500  2.062578  156.543  127.115  16.1596
  6550.500  6550.500  0.500  2.061898  156.535  127.155  16.1757
  6551.396  6551.400  0.500  2.061091  156.514  127.215  16.1964
  6552.301  6552.300  0.500  2.060639  156.526  127.234  16.2061
  6553.197  6553.200  0.500  2.060043  156.5  127.241  16.2167
  6554.104  6554.100  0.500  2.059734  156.493  127.323  16.2322
  6555.001  6555.000  0.500  2.059354  156.496  127.353  16.2421
  6555.899  6555.900  0.500  2.058918  156.5  127.403  16.2557
  6556.798  6556.800  0.500  2.058193  156.491  127.444  16.2727
  6557.699  6557.700  0.500  2.057667  156.472  127.498  16.2881
  6558.597  6558.600  0.500  2.057124  156.466  127.547  16.3032
  6559.497  6559.500  0.500  2.056795  156.472  127.554  16.3095
  6560.406  6560.400  0.500  2.056586  156.474  127.616  16.3208
  6561.301  6561.300  0.500  2.056487  156.479  127.658  16.3278
  6562.198  6562.200  0.500  2.056750  156.177  127.493  16.3024
  6563.097  6563.100  0.500  2.056540  156.928  128.107  16.3843
  6563.998  6564.000  0.500  2.056315  156.999  128.204  16.4004
  6564.897  6564.900  0.500  2.055866  157.023  128.262  16.4152
  6565.793  6565.800  0.500  2.055597  157.025  128.358  16.4319
  6566.699  6566.700  0.500  2.055262  157.027  128.361  16.4378
  6567.599  6567.600  0.500  2.055041  156.998  128.408  16.4474
  6568.500  6568.500  0.500  2.054784  156.99  128.457  16.4579
  6569.402  6569.400  0.500  2.054532  157.004  128.539  16.4726
  6570.300  6570.300  0.500  2.054194  156.994  128.591  16.4849
  6571.199  6571.200  0.500  2.053919  157.006  128.655  16.4976
  6572.106  6572.100  0.500  2.053573  156.99  128.7  16.5091
  6573.006  6573.000  0.500  2.053446  156.987  128.726  16.5145
  6573.799  6573.800  0.500  2.053079  156.988  128.766  16.5257
  6576.822  6576.810  0.500  2.052100  157.018  128.915  16.5611
  6579.990  6580.000  0.500  2.048903  156.997  129.1  16.6379
  6583.358  6583.360  0.500  2.045089  156.971  129.257  16.7218
  6586.879  6586.880  0.500  2.040734  156.77  129.276  16.7973
  6590.582  6590.580  0.500  2.036391  156.959  129.62  16.9152
  6594.450  6594.450  0.500  2.031793  156.975  129.803  17.0172
  6598.504  6598.500  0.500  2.027626  156.984  129.973  17.1107
  6602.715  6602.710  0.500  2.023860  156.947  130.219  17.2077
  6607.098  6607.090  0.500  2.020081  156.986  130.448  17.3033
  6611.657  6611.650  0.500  2.016407  157.036  130.742  17.4061
  6616.388  6616.380  0.500  2.012438  157.035  130.907  17.4973
  6621.285  6621.280  0.500  2.008615  156.993  131.178  17.6007
  6626.358  6626.350  0.500  2.004740  157.025  131.488  17.7108
  6631.595  6631.590  0.500  2.000415  157.019  131.759  17.8242
  6637.016  6637.010  0.500  1.995592  157.031  131.994  17.9424
  6642.602  6642.590  0.500  1.990493  157.015  132.279  18.073
  6648.363  6648.350  0.500  1.985256  156.996  132.574  18.2084
  6654.295  6654.280  0.500  1.979594  156.988  132.85  18.35
  6660.393  6660.380  0.500  1.974068  156.996  133.197  18.4998
  6666.662  6666.650  0.500  1.968488  157.008  133.507  18.6467
  6673.102  6673.090  0.500  1.962916  156.978  133.833  18.7966
  6679.708  6679.700  0.500  1.957602  156.956  134.112  18.9361
  6686.498  6686.490  0.500  1.952136  156.927  134.43  19.0851
  6693.465  6693.450  0.500  1.946156  156.885  134.75  19.2453
  6700.579  6700.570  0.500  1.940069  156.839  135.099  19.4129
  6707.879  6707.870  0.500  1.933899  156.782  135.356  19.5702
  6715.355  6715.350  0.500  1.928068  156.775  135.731  19.7393
  6723.004  6722.990  0.500  1.921765  156.725  136.039  19.909
  6730.812  6730.800  0.500  1.914960  156.709  136.418  20.1009
  6738.797  6738.790  0.500  1.908070  156.666  136.806  20.2974
  6746.958  6746.950  0.500  1.901318  156.611  137.175  20.4901
  6755.286  6755.270  0.500  1.894605  156.551  137.481  20.6741
  6763.784  6763.770  0.500  1.887861  156.512  137.854  20.8705
  6772.460  6772.450  0.500  1.880858  156.451  138.21  21.0715
  6781.306  6781.290  0.500  1.873790  156.414  138.674  21.2921
  6790.315  6790.300  0.500  1.866515  156.373  139.108  21.5147
  6799.503  6799.490  0.500  1.859183  155.97  139.182  21.6845
  6808.868  6808.850  0.500  1.851891  156.07  139.696  21.9239
  6818.387  6818.370  0.500  1.844501  156.314  140.411  22.1995
  6828.086  6828.070  0.500  1.836820  155.887  140.504  22.3855
  6837.970  6837.950  0.500  1.828821  155.774  140.845  22.6201
  6848.011  6847.990  0.500  1.821026  155.523  141.094  22.8375
  6858.216  6858.200  0.500  1.813019  155.496  141.548  23.095
  6868.612  6868.590  0.500  1.805173  155.441  142.031  23.3564
  6879.172  6879.150  0.500  1.797318  155.32  142.417  23.6045
  6889.899  6889.880  0.500  1.789342  155.16  142.779  23.8541
  6900.797  6900.780  0.500  1.780900  154.95  143.073  24.1058
  6911.832  6911.850  0.500  1.772603  154.635  143.345  24.353
  6923.116  6923.090  0.500  1.764187  154.276  143.494  24.5842
  6934.535  6934.510  0.500  1.755835  153.964  143.766  24.8374
  6946.097  6946.090  0.500  1.747382  153.714  144.086  25.1041
  6957.867  6957.850  0.500  1.738716  153.387  144.25  25.3513
  6969.789  6969.780  0.500  1.729873  153.104  144.591  25.6369
  6981.893  6981.880  0.500  1.721247  152.763  144.804  25.8971
  6994.155  6994.150  0.500  1.712553  152.491  145.048  26.1673
  7006.599  7006.590  0.500  1.703654  152.146  145.337  26.4539
  7019.217  7019.210  0.500  1.694865  151.793  145.507  26.7186
  7032.006  7031.990  0.500  1.685832  151.491  145.792  27.0139
  7044.940  7044.950  0.500  1.676658  151.089  146.019  27.3053
  7058.074  7058.080  0.500  1.667582  150.71  146.217  27.5916
  7071.380  7071.380  0.500  1.658433  150.092  146.186  27.8393
  7084.831  7084.850  0.500  1.649361  149.683  146.408  28.1357
  7098.484  7098.500  0.500  1.640219  149.284  146.538  28.4193
  7112.294  7112.310  0.500  1.630862  148.656  146.58  28.6946
  7126.320  7126.300  0.500  1.621667  147.76  146.293  28.903
  7140.469  7140.460  0.500  1.612245  146.997  146.105  29.139
  7154.772  7154.790  0.500  1.602865  146.604  146.272  29.4473
  7169.274  7169.290  0.500  1.593580  145.999  146.304  29.7285
  7183.971  7183.960  0.500  1.584125  145.367  146.277  30.0054
  7198.785  7198.800  0.500  1.574561  144.718  146.245  30.2871
  7213.794  7213.820  0.500  1.564972  144.049  146.185  30.5665
  7228.975  7229.000  0.500  1.555330  142.427  145.106  30.6348
  7244.329  7244.360  0.500  1.545754  142.583  145.903  31.0994
  7259.861  7259.890  0.500  1.536081  142.128  146.015  31.4259
  7275.570  7275.590  0.500  1.526517  142.041  146.484  31.8297
  7291.459  7291.460  0.500  1.516772  141.466  146.606  32.1681
  7307.490  7307.510  0.500  1.507130  140.97  146.68  32.4961
  7323.701  7323.720  0.500  1.497290  140.333  146.651  32.811
  7340.119  7340.110  0.500  1.487541  138.749  145.605  32.8961
  7356.691  7356.670  0.500  1.477892  139.102  146.545  33.4296
  7373.421  7373.400  0.500  1.468066  138.472  146.469  33.7421
  7390.283  7390.300  0.500  1.458227  137.789  146.431  34.067
  7401.640  7401.660  0.500  1.451729  137.394  146.433  34.2894