File: xdidata/Ce/Ce-L3-Ce2Ti2O6.xdi
# XDI/1.0 BlueSky/1.10.0 BMM/2023-1.0-py310-tiled
# Beamline.name: BMM (06BM) -- Beamline for Materials Measurement (NIST)
# Beamline.xray_source: NSLS-II three-pole wiggler
# Beamline.collimation: paraboloid mirror, 5 nm Rh on 30 nm Pt
# Beamline.focusing: not in use
# Beamline.harmonic_rejection: flat mirror, Si stripe, pitch = 7.0 mrad relative to beam
# Beamline.software: Bluesky 1.10.0, Ophyd 1.7.0, DataBroker 2.0.0b13, Python 3.10.8, 2023-1.0-py310-tiled
# Detector.I0: 10 cm N2
# Detector.I1: 25 cm N2
# Detector.I2: 25 cm N2
# Detector.fluorescence: SII Vortex ME4 (4-element silicon drift)
# Detector.deadtime_correction: Xspress3
# Element.symbol: Ce
# Element.edge: L3
# Element.reference: Ce
# Element.reference_material: CeO2
# Facility.name: NSLS-II
# Facility.energy: 3.0
# Facility.current: 399.5
# Facility.mode: top-off
# Facility.GUP: 123456
# Facility.SAF: 301027
# Facility.cycle: 2023-2
# Mono.name: Si(111)
# Mono.d_spacing: 3.13519
# Mono.encoder_resolution: 0.0000050 deg/ct
# Mono.angle_offset: 16.0754 deg
# Mono.scan_mode: pseudo channel cut
# Mono.scan_type: step
# Mono.direction: forward in energy
# Sample.name: Ce2Ti2O6
# Sample.prep: Powder in PEG pellet
# Sample.x: 142.329 mm
# Sample.y: 114.126 mm
# Sample.SDD_position: 45.000 mm
# Scan.experimenters: Bruce Ravel
# Scan.edge_energy: 5723.4
# Scan.start_time: 2023-05-06T10:41:00
# Scan.end_time: 2023-05-06T10:46:39
# Scan.transient_id: 74731
# Scan.uid: cc88a37e-e65a-4420-a81e-01732a121c20
# Scan.plot_hint: (Ce1+Ce2+Ce3+Ce4)/I0  --  ($8+$9+$10+$11)/$5
# Column.1: energy eV
# Column.2: requested_energy eV
# Column.3: measurement_time seconds
# Column.4: xmu
# Column.5: I0 nA
# Column.6: It nA
# Column.7: Ir nA
# Column.8: Ce1
# Column.9: Ce2
# Column.10: Ce3
# Column.11: Ce4
# ///////////
# sample courtesy Martin Stennett, University of Sheffield
# -----------
# energy  requested_energy  measurement_time  xmu  I0  It  Ir  Ce1  Ce2  Ce3  Ce4
  5523.402  5523.400  0.500  209.301  108.632  1.268570  0.093352  5589.21  5912.82  5617.88  5616.83
  5553.414  5553.400  0.500  215.007  109.592  1.382883  0.105881  5892.93  6090.01  5817.07  5762.99
  5583.410  5583.400  0.500  219.622  110.317  1.501880  0.119651  5941.4  6215.16  6033.27  6038.22
  5613.405  5613.400  0.500  223.367  110.773  1.624976  0.135030  6150.87  6472.39  6122.37  5997.28
  5643.388  5643.400  0.500  229.603  111.408  1.757648  0.151837  6164.98  6789.63  6251.5  6373.57
  5673.397  5673.400  0.500  236.126  111.534  1.888513  0.169233  6362.92  6806.66  6565.8  6600.75
  5695.396  5695.400  0.500  245.693  111.463  1.984886  0.182732  6697.96  7148.93  6737.95  6800.92
  5701.391  5701.400  0.500  248.299  111.448  2.006080  0.186066  6752.3  7129.96  6951.11  6838.99
  5707.395  5707.400  0.500  261.17  111.421  2.025938  0.189359  7187.04  7562.25  7243.33  7107.19
  5713.403  5713.400  0.500  280.676  111.379  2.031111  0.190938  7719.5  8017.55  7723.69  7800.67
  5714.891  5714.900  0.500  286.747  111.327  2.026881  0.190661  7755.39  8359.84  8019.89  7787.7
  5716.389  5716.400  0.500  302.018  111.295  2.019110  0.189881  8214.85  8786.12  8454.17  8157.93
  5717.890  5717.900  0.500  320.021  111.264  2.003274  0.188389  8790.74  9269.39  8853.42  8693.29
  5719.394  5719.400  0.500  357.276  111.25  1.968135  0.185158  9720.26  10241.1  9937.34  9848.13
  5720.893  5720.900  0.500  405.087  111.211  1.914626  0.179750  11070.7  11771.3  11264.3  10944.1
  5722.393  5722.400  0.500  442.677  111.191  1.876909  0.175873  12121.7  12684.9  12358.1  12056.9
  5723.897  5723.900  0.500  541.618  111.199  1.765924  0.164562  14858.7  15562.2  15095.5  14711.1
  5725.394  5725.400  0.500  729.441  111.191  1.540882  0.141321  18424.4  21444.5  20897.9  20340.3
  5726.898  5726.900  0.500  1060.77  111.149  1.226004  0.109883  28802.5  30393.1  29446.7  29261.2
  5728.398  5728.400  0.500  1230.11  111.148  1.068123  0.094411  33664.1  35128.3  34287.9  33644.2
  5729.897  5729.900  0.500  1246.95  111.176  1.055828  0.092478  34337.7  35581.7  34995.2  33716.4
  5731.399  5731.400  0.500  1305.96  111.136  0.996849  0.086727  35293.8  36957.6  36898.2  35989.3
  5732.901  5732.900  0.500  1351.16  111.118  0.970928  0.085182  36756.5  38688.1  37770.6  36922.6
  5734.405  5734.400  0.500  1317.03  111.088  1.004525  0.089039  36025  37715.4  36706.1  35858.9
  5735.904  5735.900  0.500  1319.8  111.023  1.006191  0.089147  35870  37757.8  36845.5  36055.4
  5737.405  5737.400  0.500  1349.65  110.999  0.977367  0.086279  36550.7  38781.5  37643  36834.6
  5738.901  5738.900  0.500  1335.65  111.011  1.001254  0.088264  36550.3  38413.5  37198.1  36110.6
  5740.405  5740.400  0.500  1226.66  111.015  1.083514  0.096389  33385.3  35174.2  34111.6  33506.9
  5741.903  5741.900  0.500  1121.44  110.97  1.183575  0.106958  30341.6  32079.4  31445.1  30580.2
  5743.403  5743.400  0.500  1008.81  110.941  1.293984  0.118326  27576.5  28838.4  28003.8  27499.2
  5744.900  5744.900  0.500  937.5  110.933  1.382671  0.127668  25350.1  26853  26215.8  25581
  5746.404  5746.400  0.500  896.778  110.894  1.430906  0.132677  24188.8  25758  24949.2  24550.8
  5747.901  5747.900  0.500  879.08  110.881  1.455098  0.135566  23826.3  25110.5  24545.9  23990.3
  5750.405  5750.390  0.500  873.208  110.852  1.474752  0.138220  23673.3  24696.9  24600.7  23825.9
  5753.531  5753.520  0.500  870.844  110.793  1.492793  0.140108  23667.7  24765.1  24405.7  23644.8
  5756.830  5756.820  0.500  872.428  110.732  1.496924  0.140732  23601.9  25151.3  24122.5  23729.9
  5760.301  5760.290  0.500  889.37  110.684  1.487712  0.140141  24272.9  25077.5  24723.1  24365.8
  5763.939  5763.930  0.500  921.608  110.611  1.470030  0.138558  25312.4  26256.9  25470.1  24900.5
  5767.746  5767.740  0.500  963.043  110.6  1.443919  0.136048  26146.2  27467  26736.5  26162.8
  5771.736  5771.730  0.500  978.65  110.543  1.437074  0.136184  26654.2  28042.8  26958.9  26527.4
  5775.902  5775.890  0.500  990.768  110.492  1.446118  0.137748  26641.3  28333.3  27468.5  27029
  5780.221  5780.210  0.500  990.057  110.431  1.467535  0.140918  26962.9  28098.9  27489.5  26781.7
  5784.718  5784.710  0.500  956.463  110.362  1.508013  0.146040  25837.6  27417.1  26439.2  25863.6
  5789.391  5789.380  0.500  947.843  110.299  1.541887  0.150151  25701.5  26735.5  26404.5  25704.6
  5794.240  5794.230  0.500  939.092  110.21  1.563386  0.153081  25613.7  26516.3  26220.2  25147
  5799.249  5799.240  0.500  939.437  110.119  1.588444  0.156724  25561.5  26690.3  25798.8  25399.2
  5804.440  5804.430  0.500  934.385  110.019  1.611780  0.159985  25302.1  26424.3  25845.8  25228.1
  5809.790  5809.780  0.500  935.906  110.273  1.635965  0.163149  25334.2  26629.5  25767.6  25474.2
  5815.316  5815.310  0.500  946.207  110.133  1.646946  0.164839  25457.7  27071  25920.1  25759.9
  5821.018  5821.010  0.500  968.495  110.009  1.649787  0.166310  26365.9  27465.4  26553.7  26158.2
  5826.887  5826.880  0.500  991.43  109.877  1.646948  0.166720  26610.5  28055  27409.5  26859.8
  5832.928  5832.920  0.500  1007.55  109.667  1.647842  0.168096  27141.4  28695.1  27530  27128.7
  5839.146  5839.140  0.500  1007.75  109.478  1.668560  0.171488  26970.8  28324.7  27748.1  27283.6
  5845.524  5845.520  0.500  1004.43  109.192  1.698015  0.175892  26921.9  28251.5  27484  27018.4
  5852.088  5852.080  0.500  1004.81  108.934  1.723990  0.179974  26835.5  28163.2  27578  26881.2
  5858.821  5858.810  0.500  1007.41  108.583  1.742266  0.183258  27225.2  28142.3  27387.5  26631.9
  5865.720  5865.710  0.500  997.762  107.87  1.771020  0.187944  26454.2  27672.7  26912  26589.7
  5872.787  5872.780  0.500  1009.83  86.8174  1.450814  0.155226  21421.2  22670.2  22066.4  21512.9
  5880.028  5880.020  0.500  999.211  108.678  1.845752  0.198836  26938.5  27706.2  27136.8  26810.4
  5887.449  5887.440  0.500  1007.78  107.943  1.860669  0.202054  26607.1  28183.4  27294  26699.1
  5895.025  5895.020  0.500  1017.83  107.387  1.873328  0.205294  26727.3  28264.6  27305.8  27004.3
  5902.792  5902.780  0.500  1030.67  106.733  1.887351  0.208115  26830.5  28264.9  27823.6  27086.7
  5910.732  5910.710  0.500  1030.6  105.595  1.895487  0.210835  26823.4  28054.2  27308.7  26639.9
  5918.830  5918.810  0.500  1040.47  105.529  1.925285  0.216135  27284.7  28289.6  27382.9  26843.3
  5927.078  5927.080  0.500  1054.64  104.967  1.945222  0.220675  27307.7  28464.9  27839.2  27091.5
  5935.541  5935.520  0.500  1051.09  105.092  1.986765  0.227421  27295.6  28471.1  27348.1  27347
  5944.133  5944.140  0.500  1060.21  97.7493  1.885531  0.217779  25521.5  26553.7  26215.3  25344.6
  5952.929  5952.920  0.500  1049.91  104.036  2.045307  0.238258  26803.5  27968.5  27451.1  27005.6
  5961.869  5961.880  0.500  1062.84  102.81  2.058474  0.242142  26934.9  28165.4  27176.6  26994.3
  5971.006  5971.010  0.500  1065.59  101.671  2.072559  0.246380  26677.2  27874.2  27318.7  26469.7
  5980.300  5980.310  0.500  1075.1  100.317  2.082196  0.250026  26759.2  27800.8  26945.9  26344.3
  5989.770  5989.780  0.500  1191.77  82.7385  1.747748  0.212242  22475.9  27493.2  26523.4  22112.7
  5999.408  5999.420  0.500  1089.14  99.192  2.134950  0.261308  26786.7  27919.9  26836  26491.6
  6009.223  6009.240  0.500  1094.26  97.7314  2.140146  0.264715  26292.2  27623.6  26676.8  26351.3
  6019.214  6019.220  0.500  1111.86  96.3398  2.152572  0.268971  26624.7  27460.2  26687.7  26344.1
  6029.367  6029.380  0.500  1109.08  95.0418  2.170212  0.274086  25636.9  27346  26375.2  26050.7
  6039.708  6039.710  0.500  1116.45  93.6751  2.184530  0.278781  25657.8  26985.5  26201.8  25738.3
  6050.207  6050.210  0.500  1120.08  92.3186  2.200174  0.284064  25401.6  26779.2  25921.4  25301.7
  6060.872  6060.880  0.500  1134.67  90.6398  2.208360  0.287926  25469.6  26417.2  25583.7  25375.4
  6071.707  6071.720  0.500  1132.99  89.2211  2.218357  0.292228  24766.5  26167  25251.2  24901.9
  6082.726  6082.740  0.500  1141.2  87.769  2.227360  0.296830  24762.2  25872.7  25236.1  24291.2
  6093.900  6093.920  0.500  1152.4  86.2948  2.238548  0.301828  24354.2  25828.4  24890.5  24373
  6105.261  6105.280  0.500  1159.69  84.7652  2.247935  0.306624  24449.7  25438  24451.9  23961.4
  6116.795  6116.810  0.500  1161.31  83.1672  2.256090  0.310970  23715.2  24981.2  24255.5  23630.9
  6128.495  6128.510  0.500  1169.17  81.462  2.257056  0.314346  23613  24603.9  23874.3  23151.4
  6140.367  6140.380  0.500  1175.08  79.6642  2.253837  0.317738  23363.1  24055.4  23364.5  22829.1
  6152.417  6152.430  0.500  1185.87  77.5623  2.238346  0.319117  22819  23547.5  22978.9  22633.5