File: xdidata/Ce/Ce-L3-Ce2SiO7.xdi
# XDI/1.0 BlueSky/1.10.0 BMM/2023-1.0-py310-tiled
# Beamline.name: BMM (06BM) -- Beamline for Materials Measurement (NIST)
# Beamline.xray_source: NSLS-II three-pole wiggler
# Beamline.collimation: paraboloid mirror, 5 nm Rh on 30 nm Pt
# Beamline.focusing: not in use
# Beamline.harmonic_rejection: flat mirror, Si stripe, pitch = 7.0 mrad relative to beam
# Beamline.software: Bluesky 1.10.0, Ophyd 1.7.0, DataBroker 2.0.0b13, Python 3.10.8, 2023-1.0-py310-tiled
# Detector.I0: 10 cm N2
# Detector.I1: 25 cm N2
# Detector.I2: 25 cm N2
# Detector.fluorescence: SII Vortex ME4 (4-element silicon drift)
# Detector.deadtime_correction: Xspress3
# Element.symbol: Ce
# Element.edge: L3
# Element.reference: Ce
# Element.reference_material: CeO2
# Facility.name: NSLS-II
# Facility.energy: 3.0
# Facility.current: 399.7
# Facility.mode: top-off
# Facility.GUP: 123456
# Facility.SAF: 301027
# Facility.cycle: 2023-2
# Mono.name: Si(111)
# Mono.d_spacing: 3.13519
# Mono.encoder_resolution: 0.0000050 deg/ct
# Mono.angle_offset: 16.0754 deg
# Mono.scan_mode: pseudo channel cut
# Mono.scan_type: step
# Mono.direction: forward in energy
# Sample.name: Ce2SiO7
# Sample.prep: Powder in PEG pellet
# Sample.x: 142.329 mm
# Sample.y: 114.126 mm
# Sample.SDD_position: 45.000 mm
# Scan.experimenters: Bruce Ravel
# Scan.edge_energy: 5723.4
# Scan.start_time: 2023-05-06T11:00:13
# Scan.end_time: 2023-05-06T11:05:54
# Scan.transient_id: 74749
# Scan.uid: 6b3cb612-6d4e-4f77-87d1-a0faeda308f1
# Scan.plot_hint: (Ce1+Ce2+Ce3+Ce4)/I0  --  ($8+$9+$10+$11)/$5
# Column.1: energy eV
# Column.2: requested_energy eV
# Column.3: measurement_time seconds
# Column.4: xmu
# Column.5: I0 nA
# Column.6: It nA
# Column.7: Ir nA
# Column.8: Ce1
# Column.9: Ce2
# Column.10: Ce3
# Column.11: Ce4
# ///////////
# sample courtesy Martin Stennett, University of Sheffield
# -----------
# energy  requested_energy  measurement_time  xmu  I0  It  Ir  Ce1  Ce2  Ce3  Ce4
  5523.408  5523.400  0.500  3.137447  109.018  2.036670  0.150612  76.0074  94.0093  89.011  83.0094
  5553.412  5553.400  0.500  3.051095  110.136  2.210847  0.170164  96.0092  90.0085  77.0089  73.008
  5583.407  5583.400  0.500  3.587841  111.221  2.395381  0.192230  84.0085  107.011  110.014  98.0115
  5613.405  5613.400  0.500  3.659716  111.77  2.579913  0.215242  107.011  89.0093  120.015  93.0113
  5643.388  5643.400  0.500  6.227114  112.104  2.765708  0.239890  160.017  198.022  165.021  175.022
  5673.397  5673.400  0.500  11.8315  112.257  2.953844  0.266319  325.038  339.039  328.045  336.044
  5695.396  5695.400  0.500  29.0814  112.217  3.074996  0.284846  809.099  847.103  823.12  784.11
  5701.400  5701.400  0.500  41.0182  112.234  3.096039  0.288660  1111.14  1159.15  1166.18  1167.17
  5707.399  5707.400  0.500  65.4692  112.207  3.097653  0.290791  1881.26  1923.26  1742.28  1799.28
  5713.397  5713.400  0.500  125.264  112.199  3.037746  0.286828  3384.56  3584.59  3600.69  3484.64
  5714.888  5714.900  0.500  154.519  112.255  2.994703  0.283143  4344.99  4510.8  4276.86  4212.8
  5716.387  5716.400  0.500  200.677  112.218  2.923387  0.276453  5559.86  5921.17  5552.23  5486.17
  5717.891  5717.900  0.500  273.157  112.216  2.801815  0.265078  7651.22  8035.81  7464.88  7500.83
  5719.393  5719.400  0.500  375.696  112.207  2.631917  0.248977  10234.8  10871.9  10619.1  10430
  5720.893  5720.900  0.500  515.825  112.198  2.415704  0.228020  14279.4  15135.1  14355.2  14105
  5722.393  5722.400  0.500  775.726  112.186  2.028740  0.191349  21331.2  22702.1  21632.3  21359.9
  5723.898  5723.900  0.500  1257.89  112.176  1.410154  0.132267  34644.4  36791.1  34824  34844.8
  5725.391  5725.400  0.500  1700.18  112.17  0.954206  0.088121  46733.4  49620.8  47719.9  46635.6
  5726.895  5726.900  0.500  1847.24  112.193  0.825724  0.074311  50975.2  53673.7  51949.2  50650.3
  5728.400  5728.400  0.500  1677.4  112.234  0.958687  0.085053  46425.5  48788.2  47054.8  45992.4
  5729.899  5729.900  0.500  1404.57  112.228  1.220865  0.107263  38937  40882.3  39313.7  38499.7
  5731.399  5731.400  0.500  1185.4  112.223  1.465567  0.128170  32947.1  34320.1  33299.6  32461.8
  5732.901  5732.900  0.500  1031.3  112.224  1.653342  0.145796  28897.6  29650.3  29040.9  28148.2
  5734.404  5734.400  0.500  943.564  112.22  1.786001  0.159109  26304.7  27427.2  26221.4  25933
  5735.904  5735.900  0.500  897.612  112.206  1.857905  0.165463  24904.2  26160  24987.3  24665.9
  5737.405  5737.400  0.500  887.089  112.171  1.879113  0.166714  24494.3  25789.7  24818  24403.6
  5738.899  5738.900  0.500  881.921  112.208  1.890229  0.167930  24188.2  25791.6  24647.8  24331.4
  5740.406  5740.400  0.500  886.649  112.198  1.897922  0.170165  24603.8  25889.6  24652.8  24334.5
  5741.900  5741.900  0.500  888.301  112.229  1.910158  0.173359  24782.7  25995.8  24653.9  24260.5
  5743.403  5743.400  0.500  876.127  112.197  1.921975  0.177061  24414.7  25579.5  24362.6  23942.3
  5744.898  5744.900  0.500  878.812  112.185  1.932421  0.179501  24428.8  25503.3  24514.6  24143.2
  5746.401  5746.400  0.500  882.993  112.137  1.933765  0.180361  24401.1  25653.4  24797.9  24164.2
  5747.901  5747.900  0.500  895.033  112.136  1.925174  0.180183  24605.8  26060.9  25060.3  24638.8
  5750.402  5750.390  0.500  939.488  112.041  1.879879  0.176952  26242.2  27516.1  26063.2  25439.6
  5753.527  5753.520  0.500  1002.26  111.973  1.806763  0.170572  27516  29254.9  28217.3  27238.5
  5756.832  5756.820  0.500  1046.16  111.884  1.758833  0.166252  29090.5  30248.7  29139.1  28570.5
  5760.298  5760.290  0.500  1048.1  111.776  1.762913  0.166802  29088.5  30197.9  29215.3  28649.8
  5763.944  5763.930  0.500  1017.77  111.695  1.827629  0.173293  28629.7  29477.1  28196.4  27375.6
  5767.740  5767.740  0.500  967.316  111.523  1.903635  0.180639  26752.4  27697.5  27155.2  26272.4
  5771.737  5771.730  0.500  951.478  111.432  1.944517  0.185320  26306.3  27620.1  26278.3  25820.9
  5775.894  5775.890  0.500  954.529  111.336  1.963830  0.188054  26448.4  27411  26651.6  25761.9
  5780.218  5780.210  0.500  949.535  111.233  1.979926  0.191252  26063.1  27444.3  26274.5  25838
  5784.715  5784.710  0.500  964.255  111.142  1.994614  0.194085  26447.5  28029.6  26654.9  26037.3
  5789.388  5789.380  0.500  975.265  111.428  2.000088  0.195894  26753  28239.8  27156.2  26522.6
  5794.236  5794.230  0.500  984.795  111.316  2.001744  0.197416  26864.1  28617.4  27532.8  26609
  5799.245  5799.240  0.500  989.213  111.178  2.008481  0.199270  27169.1  28521.1  27268.4  27020.3
  5804.440  5804.430  0.500  1007.06  111.102  2.018962  0.201559  27840  28912.7  27670  27462.7
  5809.788  5809.780  0.500  1013.44  110.937  2.039526  0.204441  27772.9  29121.8  28367.5  27165.4
  5815.316  5815.310  0.500  1014.55  110.824  2.061053  0.207563  27625.9  29599.2  27865.1  27346.4
  5821.018  5821.010  0.500  1019.97  110.634  2.089430  0.211562  27885.9  29546.3  28017.3  27393.8
  5826.890  5826.880  0.500  1013.05  110.47  2.111685  0.214788  27539.9  29115.8  27822  27434.6
  5832.931  5832.920  0.500  1014.27  110.288  2.132634  0.218626  27982.3  29087.7  27667.9  27123.4
  5839.145  5839.140  0.500  1021.26  110.053  2.155422  0.222742  27787.4  29164.1  28152.4  27289.7
  5845.522  5845.520  0.500  1025.12  109.82  2.171535  0.226229  28103.5  29078  27953.4  27443.8
  5852.082  5852.080  0.500  1041.92  109.525  2.186038  0.229373  28024.9  29868.6  28461.6  27761
  5858.818  5858.810  0.500  1037.94  109.109  2.208453  0.233577  27952.7  29554.2  28112.7  27628
  5865.717  5865.710  0.500  1049.82  108.41  2.226959  0.237583  27985.7  29436.2  28464.6  27924.1
  5872.784  5872.780  0.500  1062.89  87.2943  1.818552  0.195673  22994.1  24182.8  23049  22558.6
  5880.028  5880.020  0.500  1056.01  109.141  2.300944  0.249297  28719.4  29733.6  28791  28010.3
  5887.446  5887.440  0.500  1061.13  108.404  2.318695  0.253292  28409.1  29784.5  28867.3  27970.3
  5895.025  5895.020  0.500  1061.74  107.806  2.340800  0.257794  28354.8  29718.6  28463  27925.3
  5902.789  5902.780  0.500  1066.55  107.099  2.365335  0.262443  28182  29964.7  28366.6  27713
  5910.723  5910.710  0.500  1071.05  105.932  2.377202  0.265908  28264.3  29256.2  28212.7  27725.1
  5918.817  5918.810  0.500  1044.4  105.899  2.410267  0.271970  28261.7  25947.7  28382.6  28008.3
  5927.102  5927.080  0.500  1081.5  105.276  2.432042  0.277261  28075.1  29637.6  28423  27720.3
  5935.541  5935.520  0.500  1086.94  105.339  2.470761  0.284270  28274.1  29735.5  28482.7  28005.3
  5944.138  5944.140  0.500  1100.46  97.9445  2.331536  0.270783  26773.9  28257.9  26745  26007.4
  5952.926  5952.920  0.500  1108.71  104.27  2.518857  0.295402  28778.6  30104  28736.2  27986.4
  5961.872  5961.880  0.500  1114.37  103.058  2.534121  0.299716  28232.9  30081  28573.9  27956.4
  5971.002  5971.010  0.500  1116.02  101.916  2.550203  0.304529  28266  29575.3  28275.6  27623
  5980.304  5980.310  0.500  1127.37  100.5  2.559618  0.308967  27914.3  29474.1  28243.4  27668.9
  5989.773  5989.780  0.500  1286.99  82.8818  2.146122  0.262194  27383  28778.5  27376.7  23130.1
  5999.432  5999.420  0.500  1138.77  99.4513  2.619613  0.322045  27969.1  29578.3  28242.6  27461.9
  6009.227  6009.240  0.500  1141.16  97.9406  2.626784  0.326451  27485.8  29208.1  27831.9  27240.5
  6019.226  6019.220  0.500  1149.55  96.625  2.639770  0.331446  27287.8  28533.2  27667.7  27586.5
  6029.393  6029.380  0.500  1162.18  95.3067  2.647685  0.336007  27413.3  28909.6  27604.7  26836
  6039.696  6039.710  0.500  1170.54  93.9229  2.657982  0.341057  27019.2  28453.1  27412.4  27056
  6050.204  6050.210  0.500  1174.51  92.5919  2.670995  0.346641  27157.7  28057.8  27029  26505.5
  6060.869  6060.880  0.500  1177.41  90.9379  2.674955  0.350618  26556.9  27927.4  26556.7  26030.2
  6071.715  6071.720  0.500  1184.3  89.499  2.686127  0.355815  25928.6  27746.4  26385.3  25933
  6082.723  6082.740  0.500  1193.68  88.0437  2.692982  0.360787  25816.8  27464.1  26206.2  25608.7
  6093.917  6093.920  0.500  1192.38  86.5976  2.700116  0.365915  25449.8  26768.6  25812.8  25226.3
  6105.269  6105.280  0.500  1204.56  85.0554  2.705174  0.370916  25138.9  26794.4  25363.5  25157.2
  6116.799  6116.810  0.500  1213.33  83.4505  2.709637  0.375341  25055.3  26235.9  25225.2  24736.8
  6128.494  6128.510  0.500  1215.18  81.7687  2.710896  0.379540  24625.6  25825.7  24807.9  24104.3
  6140.363  6140.380  0.500  1221.2  79.9738  2.705499  0.383051  24013.1  25426.3  24685.7  23538.8
  6152.413  6152.430  0.500  1210.08  77.8381  2.667045  0.382146  23338.2  24546.9  23230.8  23074.6