File: xdidata/Ce/Ce-L3-Ce2Ti2O7.xdi
# XDI/1.0 BlueSky/1.10.0 BMM/2023-1.0-py310-tiled
# Beamline.name: BMM (06BM) -- Beamline for Materials Measurement (NIST)
# Beamline.xray_source: NSLS-II three-pole wiggler
# Beamline.collimation: paraboloid mirror, 5 nm Rh on 30 nm Pt
# Beamline.focusing: not in use
# Beamline.harmonic_rejection: flat mirror, Si stripe, pitch = 7.0 mrad relative to beam
# Beamline.software: Bluesky 1.10.0, Ophyd 1.7.0, DataBroker 2.0.0b13, Python 3.10.8, 2023-1.0-py310-tiled
# Detector.I0: 10 cm N2
# Detector.I1: 25 cm N2
# Detector.I2: 25 cm N2
# Detector.fluorescence: SII Vortex ME4 (4-element silicon drift)
# Detector.deadtime_correction: Xspress3
# Element.symbol: Ce
# Element.edge: L3
# Element.reference: Ce
# Element.reference_material: CeO2
# Facility.name: NSLS-II
# Facility.energy: 3.0
# Facility.current: 399.9
# Facility.mode: top-off
# Facility.GUP: 123456
# Facility.SAF: 301027
# Facility.cycle: 2023-2
# Mono.name: Si(111)
# Mono.d_spacing: 3.13519
# Mono.encoder_resolution: 0.0000050 deg/ct
# Mono.angle_offset: 16.0754 deg
# Mono.scan_mode: pseudo channel cut
# Mono.scan_type: step
# Mono.direction: forward in energy
# Sample.name: Ce2Ti2O7
# Sample.prep: Powder in PEG pellet
# Sample.x: 142.329 mm
# Sample.y: 114.126 mm
# Sample.SDD_position: 45.000 mm
# Scan.experimenters: Bruce Ravel
# Scan.edge_energy: 5723.4
# Scan.start_time: 2023-05-06T10:34:35
# Scan.end_time: 2023-05-06T10:40:17
# Scan.transient_id: 74725
# Scan.uid: ffa7c10f-6ee4-4c2e-aaa3-b1590b842e49
# Scan.plot_hint: (Ce1+Ce2+Ce3+Ce4)/I0  --  ($8+$9+$10+$11)/$5
# Column.1: energy eV
# Column.2: requested_energy eV
# Column.3: measurement_time seconds
# Column.4: xmu
# Column.5: I0 nA
# Column.6: It nA
# Column.7: Ir nA
# Column.8: Ce1
# Column.9: Ce2
# Column.10: Ce3
# Column.11: Ce4
# ///////////
# sample courtesy Martin Stennett, University of Sheffield
# -----------
# energy  requested_energy  measurement_time  xmu  I0  It  Ir  Ce1  Ce2  Ce3  Ce4
  5523.402  5523.400  0.500  105.727  109.451  1.337065  0.098803  2906.34  3055.85  2849.88  2759.83
  5553.414  5553.400  0.500  108.75  110.429  1.459999  0.112384  2902.32  3211.94  2917.92  2976.93
  5583.408  5583.400  0.500  112.59  111.26  1.587503  0.127257  3052.78  3324  3105  3044.97
  5613.405  5613.400  0.500  113.914  111.784  1.715423  0.143274  3165.67  3330.03  3169.07  3069.01
  5643.389  5643.400  0.500  116.461  112.108  1.852828  0.160714  3253.92  3426.1  3200.11  3176.08
  5673.398  5673.400  0.500  123.621  112.27  1.990617  0.179074  3480.38  3630.2  3415.21  3353.17
  5695.391  5695.400  0.500  135.084  112.244  2.085458  0.192866  3780.24  3899.31  3782.39  3700.32
  5701.389  5701.400  0.500  143.224  112.187  2.107791  0.196373  3986.61  4346.49  3886.45  3848.4
  5707.386  5707.400  0.500  160.139  112.179  2.118651  0.198650  4506.4  4719.63  4382.63  4355.6
  5713.403  5713.400  0.500  198.945  112.12  2.099642  0.198047  5535.43  5755.1  5579.19  5436.1
  5714.888  5714.900  0.500  221.292  112.111  2.078141  0.196214  6057.07  6342.35  6192.51  6217.44
  5716.389  5716.400  0.500  255.164  112.082  2.045736  0.193304  7011.59  7453.84  7132.94  7000.82
  5717.891  5717.900  0.500  307.597  112.053  1.986183  0.187822  8453.3  8945.57  8733.78  8334.52
  5719.393  5719.400  0.500  383.646  112.042  1.898873  0.179135  10617  11163.8  10771.9  10431.7
  5720.894  5720.900  0.500  491.243  112.015  1.771001  0.166953  13793  14228.6  13539.7  13465.6
  5722.393  5722.400  0.500  713.142  111.996  1.520404  0.143269  19875.1  20643.3  19883.5  19467.2
  5723.897  5723.900  0.500  1111.75  111.982  1.129078  0.105779  30991.6  32141.4  31131  30231.9
  5725.395  5725.400  0.500  1469.98  112.21  0.828640  0.076465  40602.4  42669  41530.4  40144.9
  5726.898  5726.900  0.500  1587.4  112.212  0.744468  0.067107  44048.7  45970.4  44585.1  43520.9
  5728.400  5728.400  0.500  1463.21  112.181  0.849107  0.075660  41394.1  43606.2  39983  39160.2
  5729.900  5729.900  0.500  1190.2  112.19  1.044005  0.091711  32900.2  34578  33293.2  32757.7
  5731.398  5731.400  0.500  1002.6  112.149  1.220381  0.106616  27984.5  29283.2  27612.9  27559.8
  5732.902  5732.900  0.500  867.611  112.155  1.362554  0.120128  23823.7  25267.1  24372.6  23844
  5734.405  5734.400  0.500  793.407  112.107  1.450102  0.129221  21908.5  23084.3  22275.6  21678.2
  5735.903  5735.900  0.500  769.151  112.09  1.478501  0.131832  21153.7  22386.7  21634  21039.5
  5737.408  5737.400  0.500  773.455  112.098  1.478849  0.131130  21317.1  22558.9  21544  21282.7
  5738.899  5738.900  0.500  786.76  112.063  1.479959  0.131521  21697.8  22905.3  21982.3  21581
  5740.405  5740.400  0.500  777.707  112.059  1.488228  0.133432  21638.4  22462.8  21788.1  21259.7
  5741.899  5741.900  0.500  778.483  112.026  1.498996  0.136238  21482.2  22575.9  21935.4  21216.7
  5743.403  5743.400  0.500  770.386  111.99  1.510628  0.138928  21314.8  22376.7  21375.8  21208.6
  5744.898  5744.900  0.500  772.662  112.003  1.520468  0.140939  21181  22402.9  21700.2  21256.7
  5746.402  5746.400  0.500  765.581  111.991  1.527296  0.142346  21108.2  22172.6  21394.8  21062.5
  5747.904  5747.900  0.500  771.11  111.929  1.529005  0.142946  21173.7  22352.8  21381  21401.9
  5750.401  5750.390  0.500  794.736  111.88  1.517363  0.142757  22015.3  22885.3  22123.4  21891.3
  5753.525  5753.520  0.500  831.889  111.822  1.487335  0.140343  22840.9  23864.2  23519  22799.2
  5756.830  5756.820  0.500  868.335  111.763  1.455748  0.137616  23818.4  25116.4  24412.7  23700.2
  5760.298  5760.290  0.500  890.322  111.712  1.439555  0.136196  24661  25866.9  24689.9  24241.7
  5763.937  5763.930  0.500  882.445  111.606  1.464160  0.138640  24420.5  25809.8  24379.6  23876.3
  5767.735  5767.740  0.500  852.998  111.443  1.515383  0.143719  23461  24786.9  23403.6  23408.6
  5771.730  5771.730  0.500  819.392  111.345  1.561333  0.148541  22912.7  23548.8  22580.1  22193.6
  5775.898  5775.890  0.500  802.969  111.211  1.592925  0.152317  22045.1  23109.7  22367  21777.4
  5780.215  5780.210  0.500  810.936  111.125  1.612908  0.155653  22119.2  23329.7  22486.9  22179.7
  5784.718  5784.710  0.500  802.105  111.01  1.627528  0.158275  22050.3  22917.3  22288.7  21785.2
  5789.389  5789.380  0.500  818.113  110.887  1.631606  0.159745  22116  23637  22603.1  22361.8
  5794.233  5794.230  0.500  838.297  110.769  1.623537  0.159612  23008.8  24084.4  22951.5  22812.3
  5799.248  5799.240  0.500  862.72  110.638  1.617966  0.160183  23477.7  24807.1  23785.2  23379.9
  5804.439  5804.430  0.500  868.428  110.506  1.628538  0.162355  23496  24888.4  23994.6  23587.2
  5809.788  5809.780  0.500  868.963  110.374  1.654311  0.165721  23758.3  24669.9  23917.4  23565
  5815.316  5815.310  0.500  854.464  110.246  1.680692  0.169023  23319.3  24319.7  23521.1  23041.6
  5821.015  5821.010  0.500  855.846  110.057  1.706385  0.172669  23024.7  24292.8  23518.1  23355.9
  5826.887  5826.880  0.500  863.06  109.918  1.727029  0.175713  23440.7  24469.9  23582.2  23372.9
  5832.928  5832.920  0.500  867.37  109.724  1.742446  0.178555  23475.3  24691.2  23812.4  23192.8
  5839.146  5839.140  0.500  872.384  109.485  1.756831  0.181444  23486.9  24961.2  23689.3  23376
  5845.524  5845.520  0.500  885.592  109.239  1.770556  0.184280  23834.1  25152.5  24145.8  23609.2
  5852.087  5852.080  0.500  891.168  108.913  1.784502  0.187097  23816.2  25036.3  24718.2  23489.1
  5858.815  5858.810  0.500  888.504  108.542  1.810195  0.191495  23874.6  24945.4  24067.6  23552.1
  5865.719  5865.710  0.500  880.765  107.847  1.835679  0.195546  23281.3  24724.2  23654.3  23327.9
  5872.786  5872.780  0.500  899.999  86.6931  1.497691  0.160927  19315.4  20098  19250.1  19360.2
  5880.023  5880.020  0.500  904.306  108.58  1.893452  0.204723  24210  25403.9  24411  24164.8
  5887.453  5887.440  0.500  916.451  107.838  1.902733  0.207685  24522.3  25432.9  24604.3  24268.9
  5895.027  5895.020  0.500  911.675  107.231  1.922400  0.211280  24227  25296.8  24458.2  23777.5
  5902.797  5902.780  0.500  917.768  106.547  1.944262  0.215236  23959  25215.7  24549.2  24061.7
  5910.723  5910.710  0.500  914.622  105.385  1.964401  0.219384  23953.5  24950.5  23984.7  23499.1
  5918.813  5918.810  0.500  908.796  105.776  2.011225  0.226824  23710.2  25129.7  24113.9  23175.1
  5927.079  5927.080  0.500  919.082  105.2  2.030440  0.230992  23921.9  25094.6  23959.8  23711.4
  5935.514  5935.520  0.500  928.806  105.207  2.057441  0.236262  24373  25394.9  24220.9  23728.5
  5944.127  5944.140  0.500  955.179  97.8577  1.941399  0.225405  22964.8  24470.4  23177.3  22859.1
  5952.920  5952.920  0.500  947.048  104.159  2.102182  0.245903  24430  25509  24522.2  24182.8
  5961.868  5961.880  0.500  952.297  102.92  2.116204  0.249899  24142.7  25466.9  24620.3  23780.5
  5971.000  5971.010  0.500  953.352  101.739  2.134700  0.254494  23576.1  25325.7  24170.8  23920.4
  5980.307  5980.310  0.500  952.942  100.403  2.146326  0.258498  23755.6  24900.6  23832.4  23189.9
  5989.769  5989.780  0.500  974.759  82.6862  1.797945  0.219253  20002.8  20803.7  19853.8  19938.7
  5999.408  5999.420  0.500  970.236  99.265  2.201042  0.270536  23971.4  24850.4  24081.7  23407
  6009.223  6009.240  0.500  973.267  97.7511  2.211109  0.274154  23551.4  24654.9  23807  23124.6
  6019.214  6019.220  0.500  977.603  96.3757  2.222126  0.278588  23291  24734  23612.9  22579.2
  6029.376  6029.380  0.500  988.692  95.0192  2.235055  0.283266  23231  24445.7  23441.8  22826.3
  6039.696  6039.710  0.500  994.438  93.7202  2.249670  0.288152  23237.4  24287.4  23030.2  22643.9
  6050.199  6050.210  0.500  999.216  92.377  2.262134  0.292870  22890.2  23930.2  22866.2  22618
  6060.869  6060.880  0.500  999.824  90.7046  2.266516  0.296520  22448.9  23673.7  22442.6  22123.4
  6071.706  6071.720  0.500  1006.18  89.2568  2.278575  0.301196  22453.8  23399.4  22132.3  21823
  6082.735  6082.740  0.500  1016.51  87.8001  2.287179  0.305669  22216.2  23087.2  22035.2  21911
  6093.900  6093.920  0.500  1024.29  86.3235  2.296682  0.310704  21892.8  22966.1  22089.3  21471.8
  6105.264  6105.280  0.500  1031.22  84.8038  2.305966  0.315475  21575.1  22604.6  21868.8  21402.5
  6116.791  6116.810  0.500  1039.88  83.1931  2.314475  0.319800  21461.6  22401.4  21520.3  21127.1
  6128.490  6128.510  0.500  1034.62  81.5231  2.317701  0.323648  20978.7  21823.9  20965  20577.7
  6140.363  6140.380  0.500  1042.36  79.7126  2.315720  0.327189  20652.2  21666.6  20358.5  20412.4
  6152.413  6152.430  0.500  1039.55  77.5695  2.290515  0.327501  20031.8  21001.2  19987.2  19616.9