File: xdidata/Ce/Ce-L3-CaCe2Ti4O12.xdi
# XDI/1.0 BlueSky/1.10.0 BMM/2023-1.0-py310-tiled
# Beamline.name: BMM (06BM) -- Beamline for Materials Measurement (NIST)
# Beamline.xray_source: NSLS-II three-pole wiggler
# Beamline.collimation: paraboloid mirror, 5 nm Rh on 30 nm Pt
# Beamline.focusing: not in use
# Beamline.harmonic_rejection: flat mirror, Si stripe, pitch = 7.0 mrad relative to beam
# Beamline.software: Bluesky 1.10.0, Ophyd 1.7.0, DataBroker 2.0.0b13, Python 3.10.8, 2023-1.0-py310-tiled
# Detector.I0: 10 cm N2
# Detector.I1: 25 cm N2
# Detector.I2: 25 cm N2
# Detector.fluorescence: SII Vortex ME4 (4-element silicon drift)
# Detector.deadtime_correction: Xspress3
# Element.symbol: Ce
# Element.edge: L3
# Element.reference: Ce
# Element.reference_material: CeO2
# Facility.name: NSLS-II
# Facility.energy: 3.0
# Facility.current: 400.2
# Facility.mode: top-off
# Facility.GUP: 123456
# Facility.SAF: 301027
# Facility.cycle: 2023-2
# Mono.name: Si(111)
# Mono.d_spacing: 3.13519
# Mono.encoder_resolution: 0.0000050 deg/ct
# Mono.angle_offset: 16.0754 deg
# Mono.scan_mode: pseudo channel cut
# Mono.scan_type: step
# Mono.direction: forward in energy
# Sample.name: CaCe2Ti4O12
# Sample.prep: Powder in PEG pellet
# Sample.x: 142.329 mm
# Sample.y: 114.126 mm
# Sample.SDD_position: 45.000 mm
# Scan.experimenters: Bruce Ravel
# Scan.edge_energy: 5723.4
# Scan.start_time: 2023-05-06T10:53:50
# Scan.end_time: 2023-05-06T10:59:29
# Scan.transient_id: 74743
# Scan.uid: b79e1f41-982a-4859-b714-89174d3c2845
# Scan.plot_hint: (Ce1+Ce2+Ce3+Ce4)/I0  --  ($8+$9+$10+$11)/$5
# Column.1: energy eV
# Column.2: requested_energy eV
# Column.3: measurement_time seconds
# Column.4: xmu
# Column.5: I0 nA
# Column.6: It nA
# Column.7: Ir nA
# Column.8: Ce1
# Column.9: Ce2
# Column.10: Ce3
# Column.11: Ce4
# ///////////
# sample courtesy Martin Stennett, University of Sheffield
# -----------
# energy  requested_energy  measurement_time  xmu  I0  It  Ir  Ce1  Ce2  Ce3  Ce4
  5523.404  5523.400  0.500  159.487  109.103  1.293650  0.096101  4317.13  4473.76  4319.81  4289.78
  5553.415  5553.400  0.500  160.49  110.134  1.411712  0.109067  4306.76  4563.84  4377.9  4426.9
  5583.408  5583.400  0.500  162.516  110.97  1.533169  0.123394  4504.64  4635.9  4488.98  4404.93
  5613.407  5613.400  0.500  168.357  111.503  1.660441  0.139010  4604.96  4910.11  4719.18  4538.05
  5643.388  5643.400  0.500  169.229  111.83  1.789683  0.155822  4675.32  4915.16  4731.24  4603.12
  5673.395  5673.400  0.500  177.914  112.026  1.925481  0.173975  4891  5132.3  4936.39  4971.34
  5695.395  5695.400  0.500  188.266  111.995  2.019078  0.187334  5196.28  5448.5  5316.6  5123.46
  5701.389  5701.400  0.500  195.739  112.016  2.042065  0.190818  5382.84  5698.65  5404.68  5439.65
  5707.401  5707.400  0.500  208.292  111.998  2.057333  0.193490  5706.78  6019.82  5782.9  5818.88
  5713.397  5713.400  0.500  234.778  111.968  2.050804  0.194185  6473.66  6838.3  6502.35  6473.28
  5714.887  5714.900  0.500  250.63  111.995  2.040384  0.193319  6885.54  7204.53  7037.66  6941.58
  5716.389  5716.400  0.500  277.272  111.796  2.016951  0.191277  7650.86  7980.94  7595.98  7770.02
  5717.892  5717.900  0.500  315.017  111.672  1.970015  0.186827  8529.57  9317.72  8664.62  8666.57
  5719.394  5719.400  0.500  375.373  111.949  1.910640  0.181052  10247  10868.7  10548.9  10357.8
  5720.893  5720.900  0.500  461.358  111.943  1.815545  0.171749  12694.5  13465.5  12710.5  12775.5
  5722.394  5722.400  0.500  632.423  111.98  1.620550  0.153174  17390.6  18180.2  17809.6  17438.3
  5723.897  5723.900  0.500  973.299  111.95  1.261597  0.118572  26718.8  28298.7  27339.1  26604.3
  5725.394  5725.400  0.500  1380.07  111.928  0.882752  0.081846  35159.8  40779.7  39725.3  38803.2
  5726.893  5726.900  0.500  1536.57  111.938  0.783754  0.070890  42354.9  44047  43207.3  42391.3
  5728.402  5728.400  0.500  1306.47  111.956  0.950632  0.084806  35957.5  37490.7  36958.9  35860.7
  5729.899  5729.900  0.500  1055.11  111.946  1.173846  0.103709  29074.1  30429.1  29561.5  29050
  5731.398  5731.400  0.500  870.379  111.926  1.364369  0.119708  24035.5  24843.3  24353.8  24185.6
  5732.903  5732.900  0.500  732.531  111.879  1.513106  0.134004  20238.9  20958.7  20697.3  20059.7
  5734.399  5734.400  0.500  666.294  111.882  1.598831  0.143035  18342  19352.1  18690.3  18161.9
  5735.907  5735.900  0.500  652.883  111.869  1.617018  0.144583  18071.1  18953.8  18012.8  17999.7
  5737.404  5737.400  0.500  677.572  111.846  1.598037  0.142220  18441  19760.6  18956.7  18625.3
  5738.901  5738.900  0.500  693.453  111.848  1.583667  0.141182  19097.1  20180.9  19394  18889.6
  5740.405  5740.400  0.500  706.162  111.836  1.580762  0.142025  19409.3  20552.3  19705.4  19307
  5741.900  5741.900  0.500  709.094  111.824  1.581927  0.144263  19483.9  20681.4  19745.3  19383.1
  5743.402  5743.400  0.500  714.364  111.801  1.591110  0.146952  19589.1  20531.2  19983.7  19762.3
  5744.900  5744.900  0.500  708.69  111.792  1.600707  0.148952  19430.9  20463.3  19912.6  19419.1
  5746.400  5746.400  0.500  705.142  111.774  1.607506  0.150298  19247.6  20454.2  19837.6  19277
  5747.901  5747.900  0.500  709.851  111.767  1.609437  0.151055  19250.3  20497.2  19761.4  19829.3
  5750.402  5750.390  0.500  727.598  111.729  1.596092  0.150556  20077.3  20999.9  20216.9  19999.7
  5753.520  5753.520  0.500  771.464  111.681  1.560583  0.147867  21206.9  22392.2  21398.1  21160.8
  5756.825  5756.820  0.500  801.565  111.634  1.538737  0.145894  21809.5  23193.9  22422.1  22056.6
  5760.300  5760.290  0.500  795.535  111.599  1.555787  0.147761  21806.2  22726.5  22333.8  21914.5
  5763.942  5763.930  0.500  773.166  111.54  1.600987  0.152389  21070.7  22127  21491.1  21550.1
  5767.744  5767.740  0.500  748.021  111.515  1.644848  0.156421  20501.1  21375.2  21033.8  20505.2
  5771.737  5771.730  0.500  733.374  111.479  1.674200  0.160087  19879.3  21237.1  20551.3  20087.9
  5775.902  5775.890  0.500  726.96  111.419  1.696971  0.163077  19627.1  21007.9  20343.2  20018.8
  5780.222  5780.210  0.500  724.985  111.366  1.720715  0.166579  19922.9  20805.9  20082.9  19926.8
  5784.718  5784.710  0.500  727.855  111.309  1.741572  0.169743  19949.9  20890.8  20307.2  19868.6
  5789.391  5789.380  0.500  736.364  111.252  1.744413  0.171339  20099.1  20994.1  20756.6  20071.9
  5794.243  5794.230  0.500  767.554  111.167  1.724603  0.170431  21054.7  22059  21437.4  20775.7
  5799.249  5799.240  0.500  790.061  111.082  1.715992  0.170879  21695.2  22511.4  21743.7  21811.6
  5804.435  5804.430  0.500  788.671  110.994  1.744488  0.174654  21491.3  22575.3  21957.7  21513.3
  5809.792  5809.780  0.500  774.932  110.91  1.783659  0.179191  21169.6  22074.1  21577.5  21126
  5815.313  5815.310  0.500  766.436  110.765  1.815639  0.183421  20866.6  21926.8  21117.1  20983.9
  5821.018  5821.010  0.500  763.19  110.647  1.843790  0.187206  20888.1  21695.8  21032.2  20828.8
  5826.891  5826.880  0.500  771.421  110.522  1.864115  0.190316  20846.2  22237.1  21211.1  20964.9
  5832.929  5832.920  0.500  773.851  110.318  1.876740  0.193066  21073.5  21999  21476.4  20820.8
  5839.146  5839.140  0.500  791.589  110.11  1.885925  0.195202  21364.7  22652.6  21667.5  21477.3
  5845.525  5845.520  0.500  805.115  109.84  1.896238  0.197839  21577.2  22990.1  22127.2  21739.8
  5852.088  5852.080  0.500  807.239  109.526  1.914761  0.201334  22008.5  22762.9  21998  21644.7
  5858.817  5858.810  0.500  808.351  109.11  1.942266  0.205959  21734.6  22779.9  21903  21781.8
  5865.717  5865.710  0.500  793.761  108.407  1.980564  0.211720  21379.8  21962.1  21498.5  21209.2
  5872.786  5872.780  0.500  854.626  87.1709  1.617127  0.174305  20815.5  18331.2  17945.6  17406.2
  5880.023  5880.020  0.500  810.849  109.088  2.039533  0.221241  21969  22832  22264.3  21388.6
  5887.446  5887.440  0.500  821.08  108.4  2.046873  0.223900  22069.4  22916.1  22405.7  21613.9
  5895.025  5895.020  0.500  825.635  108.026  2.073154  0.228642  21837.8  23000.1  22425.5  21926.1
  5902.789  5902.780  0.500  819.098  107.297  2.096681  0.233089  21669.3  22586.8  22075.3  21555.7
  5910.733  5910.710  0.500  819.119  106.116  2.115769  0.237007  21405.1  22458.5  21652.7  21405.4
  5918.823  5918.810  0.500  815.751  106.034  2.160983  0.244260  21170.3  22354.3  21618.6  21354.4
  5927.101  5927.080  0.500  824.854  105.425  2.181670  0.249109  21399.9  22531.6  21787.8  21241.2
  5935.541  5935.520  0.500  836.251  105.463  2.209582  0.254854  21619.8  22672.8  22169.2  21731.8
  5944.131  5944.140  0.500  853.637  98.058  2.079093  0.242031  20688.7  21564.9  20999.5  20452.9
  5952.914  5952.920  0.500  856.389  104.334  2.254090  0.264474  21961.2  23007  22391.5  21991.1
  5961.883  5961.880  0.500  854.442  103.095  2.272237  0.269026  21665.3  22933  22054.2  21436.6
  5971.002  5971.010  0.500  856.603  101.9  2.294784  0.274553  21364.3  22763.6  21949.7  21210.1
  5980.298  5980.310  0.500  860.981  100.535  2.307956  0.278739  21111.7  22374.4  21733.6  21339.2
  5989.791  5989.780  0.500  872.175  82.8606  1.937711  0.237096  17887.7  18713.8  17982.8  17684.6
  5999.418  5999.420  0.500  870.253  99.3703  2.363372  0.291132  21351.5  22473.3  21713.6  20938.9
  6009.230  6009.240  0.500  880.264  97.8877  2.371211  0.294861  21223.7  22159  21577.3  21207
  6019.211  6019.220  0.500  884.725  96.5403  2.383670  0.299539  21030.3  22050.7  21503.1  20827.5
  6029.370  6029.380  0.500  885.421  95.2168  2.399132  0.304977  20794.4  21802.5  20997.7  20712.5
  6039.696  6039.710  0.500  891.511  93.8391  2.415682  0.310344  20686.9  21546.3  20902.4  20523
  6050.221  6050.210  0.500  901.309  92.5056  2.430286  0.315359  20554.8  21648.1  20767.3  20405.9
  6060.869  6060.880  0.500  907.042  90.8626  2.435268  0.319284  20362.7  21322.8  20360.9  20369.8
  6071.703  6071.720  0.500  910.948  89.4351  2.444928  0.323924  20184.4  21076.4  20348.6  19861.2
  6082.727  6082.740  0.500  910.841  87.9922  2.459132  0.329734  19758.5  20649.1  19954.3  19785
  6093.906  6093.920  0.500  924.01  86.5173  2.466449  0.334442  19822.8  20832.1  19750  19537.8
  6105.261  6105.280  0.500  922.831  85.0079  2.476423  0.339491  19518.6  20235.4  19595.6  19098.3
  6116.791  6116.810  0.500  931.394  83.4273  2.486163  0.344236  19243.9  20115.3  19493.4  18851
  6128.492  6128.510  0.500  940.136  81.7395  2.490434  0.348824  18894  20187.3  19383.4  18381.6
  6140.368  6140.380  0.500  938.003  79.9396  2.488094  0.352429  18637  19338.5  18797.8  18210.3
  6152.415  6152.430  0.500  935.22  77.8058  2.462560  0.352639  18089.2  18732  18192.3  17751.9