File: xdidata/Ce/Ce-L3-CeO2.xdi
# XDI/1.0 BlueSky/1.10.0 BMM/2023-1.0-py310-tiled
# Beamline.name: BMM (06BM) -- Beamline for Materials Measurement (NIST)
# Beamline.xray_source: NSLS-II three-pole wiggler
# Beamline.collimation: paraboloid mirror, 5 nm Rh on 30 nm Pt
# Beamline.focusing: not in use
# Beamline.harmonic_rejection: flat mirror, Si stripe, pitch = 7.0 mrad relative to beam
# Beamline.software: Bluesky 1.10.0, Ophyd 1.7.0, DataBroker 2.0.0b13, Python 3.10.8, 2023-1.0-py310-tiled
# Detector.I0: 10 cm N2
# Detector.I1: 25 cm N2
# Detector.I2: 25 cm N2
# Detector.fluorescence: SII Vortex ME4 (4-element silicon drift)
# Detector.deadtime_correction: Xspress3
# Element.symbol: Ce
# Element.edge: L3
# Element.reference: Ce
# Element.reference_material: CeO2
# Facility.name: NSLS-II
# Facility.energy: 3.0
# Facility.current: 400.8
# Facility.mode: top-off
# Facility.GUP: 123456
# Facility.SAF: 301027
# Facility.cycle: 2023-2
# Mono.name: Si(111)
# Mono.d_spacing: 3.13519
# Mono.encoder_resolution: 0.0000050 deg/ct
# Mono.angle_offset: 16.0754 deg
# Mono.scan_mode: pseudo channel cut
# Mono.scan_type: step
# Mono.direction: forward in energy
# Sample.name: CeO2
# Sample.prep: Powder in PEG pellet
# Sample.x: 142.329 mm
# Sample.y: 114.126 mm
# Sample.SDD_position: 45.000 mm
# Scan.experimenters: Bruce Ravel
# Scan.edge_energy: 5723.4
# Scan.start_time: 2023-05-06T10:28:05
# Scan.end_time: 2023-05-06T10:33:53
# Scan.transient_id: 74719
# Scan.uid: ccd2ea8c-922b-431f-86e2-45cc90f56c2e
# Scan.plot_hint: (Ce1+Ce2+Ce3+Ce4)/I0  --  ($8+$9+$10+$11)/$5
# Column.1: energy eV
# Column.2: requested_energy eV
# Column.3: measurement_time seconds
# Column.4: xmu
# Column.5: I0 nA
# Column.6: It nA
# Column.7: Ir nA
# Column.8: Ce1
# Column.9: Ce2
# Column.10: Ce3
# Column.11: Ce4
# ///////////
# sample courtesy Martin Stennett, University of Sheffield
# -----------
# energy  requested_energy  measurement_time  xmu  I0  It  Ir  Ce1  Ce2  Ce3  Ce4
  5523.405  5523.400  0.500  1.474041  109.235  1.934472  0.143341  37.0033  46.0042  33.0038  45.0049
  5553.412  5553.400  0.500  1.696468  110.241  2.098367  0.161954  47.0046  39.0038  50.0062  51.0058
  5583.413  5583.400  0.500  1.665953  111.06  2.272478  0.182524  39.0039  44.0045  44.0055  58.0068
  5613.403  5613.400  0.500  2.312760  111.568  2.449531  0.204766  62.0064  58.0061  73.0094  65.0079
  5643.387  5643.400  0.500  3.649169  111.819  2.625991  0.228098  79.0082  105.011  108.014  116.014
  5673.399  5673.400  0.500  9.906554  111.96  2.809018  0.253446  280.031  258.029  292.041  279.036
  5695.393  5695.400  0.500  26.6126  111.879  2.928236  0.271460  706.084  800.096  720.103  751.102
  5701.391  5701.400  0.500  38.0411  111.92  2.953478  0.275817  996.123  1143.14  1043.15  1075.15
  5707.386  5707.400  0.500  56.4441  111.843  2.958958  0.278142  1537.2  1602.21  1567.24  1606.24
  5713.404  5713.400  0.500  97.7196  111.777  2.927016  0.276763  2751.41  2832.43  2745.48  2593.44
  5714.888  5714.900  0.500  113.436  111.755  2.903514  0.275119  3053.46  3298.51  3196.57  3128.53
  5716.391  5716.400  0.500  141.556  111.701  2.868852  0.272120  3950.72  4054.68  3927.75  3878.72
  5717.892  5717.900  0.500  180.028  111.703  2.804642  0.266069  5096.77  5172.95  4951.03  4888.99
  5719.393  5719.400  0.500  249.452  111.693  2.687022  0.254597  6877.3  7330.58  6769.63  6884.62
  5720.892  5720.900  0.500  348.604  111.661  2.522826  0.238830  9660.62  10036.5  9574.62  9653.58
  5722.394  5722.400  0.500  418.196  111.655  2.415677  0.228604  11565.2  12154.4  11478.6  11495.5
  5723.897  5723.900  0.500  590.318  111.591  2.139740  0.201313  16173.9  17175.2  16280.2  16245.1
  5725.394  5725.400  0.500  920.385  111.588  1.656695  0.153806  25446  26580.2  25627.7  25050.2
  5726.898  5726.900  0.500  1352.7  111.566  1.137068  0.103398  37102.4  39346.3  37640.5  36825.6
  5728.399  5728.400  0.500  1545.6  111.559  0.928548  0.083336  41553.6  44801.3  43594.3  42476.8
  5729.901  5729.900  0.500  1746.9  111.527  0.768240  0.068290  48131  50147.6  48859.7  47687.2
  5731.398  5731.400  0.500  1835.33  111.527  0.693308  0.061203  50303.9  53053.5  51396.7  49934.2
  5732.902  5732.900  0.500  1747.85  111.505  0.760381  0.067606  47891.2  50233.5  48696.3  48073.4
  5734.404  5734.400  0.500  1638.52  111.456  0.853238  0.076610  44988.9  47173.7  45725.5  44734.1
  5735.903  5735.900  0.500  1660.98  111.439  0.831152  0.074759  45264.2  47659.6  46840.2  45333.4
  5737.405  5737.400  0.500  1760.75  111.392  0.759820  0.068030  48086.7  50597.6  49478.3  47970.5
  5738.902  5738.900  0.500  1757.48  111.355  0.758925  0.067961  48046.2  50186  49597  47874.6
  5740.407  5740.400  0.500  1658.08  111.337  0.835437  0.075552  45385  47331.6  46448.7  45441.5
  5741.902  5741.900  0.500  1470.02  111.333  1.002399  0.091526  40527.5  42322.5  40830.2  39981
  5743.405  5743.400  0.500  1297.78  111.318  1.186109  0.109719  35473.4  37338  36149.6  35505.8
  5744.898  5744.900  0.500  1204.3  111.301  1.303691  0.121348  33081.4  34611.6  33340.8  33006.4
  5746.401  5746.400  0.500  1149.69  111.257  1.373346  0.128823  31586  33317.8  31750  31256.5
  5747.904  5747.900  0.500  1117.56  111.247  1.421199  0.133495  30655.6  32136.7  30874  30658.7
  5750.401  5750.390  0.500  1082.82  111.237  1.479549  0.139738  29620.7  31084.6  30199.2  29545.5
  5753.511  5753.520  0.500  1093.01  111.522  1.480246  0.140330  29978.1  31831.4  30318.4  29765.9
  5756.815  5756.820  0.500  1125.96  111.473  1.455058  0.138204  31062.2  32555.3  31184.5  30712.1
  5760.294  5760.290  0.500  1179.07  111.431  1.404258  0.133736  32528.3  33891.9  32720.1  32244.7
  5763.935  5763.930  0.500  1233.67  111.396  1.351328  0.128734  33930.1  35325.9  34819.8  33350.1
  5767.747  5767.740  0.500  1308.03  111.311  1.284192  0.122420  35790.1  37820.5  36593.9  35393.8
  5771.733  5771.730  0.500  1321.95  111.266  1.284834  0.123085  36546.9  38068  36489.2  35983.5
  5775.898  5775.890  0.500  1312.81  111.22  1.307562  0.125770  36081.2  37654.5  36468  35806.3
  5780.219  5780.210  0.500  1267.61  111.148  1.368945  0.132702  34454.2  36109.7  35422.4  34905.9
  5784.718  5784.710  0.500  1229.17  111.087  1.437541  0.140380  33572.8  35329.6  33954.8  33688.4
  5789.389  5789.380  0.500  1209.69  111.012  1.477759  0.145164  33043.6  34743.9  33603.3  32899.6
  5794.236  5794.230  0.500  1212.47  110.936  1.493645  0.147795  32706.7  34936.1  33749.5  33114.9
  5799.248  5799.240  0.500  1192.92  110.865  1.529399  0.152286  32481.3  34486.4  32741.5  32543.2
  5804.438  5804.430  0.500  1202.81  110.74  1.545177  0.154748  33006.1  34221.4  33615.3  32357.1
  5809.789  5809.780  0.500  1231.31  110.643  1.531312  0.153998  33730.7  35162.4  34176.9  33164.9
  5815.316  5815.310  0.500  1265.13  110.538  1.509579  0.152550  34379.9  36233.9  34963.2  34267.6
  5821.018  5821.010  0.500  1286.31  110.395  1.496333  0.152351  35021.3  36972.6  35460.1  34549
  5826.887  5826.880  0.500  1322.25  110.256  1.488179  0.152166  36003.7  37837.7  36526  35419.1
  5832.928  5832.920  0.500  1315.05  110.052  1.510877  0.155411  35609.2  37627.1  36347.7  35139.5
  5839.145  5839.140  0.500  1308.13  109.849  1.538378  0.159395  35602.3  37038.8  36018.5  35036.5
  5845.522  5845.520  0.500  1296.28  109.589  1.580900  0.165098  34958.3  36866.2  35375.7  34857.1
  5852.084  5852.080  0.500  1295.41  109.325  1.612184  0.169602  34811.9  36886.4  35508.9  34412.8
  5858.818  5858.810  0.500  1301.26  108.986  1.630345  0.173079  35285.3  36769  35131.3  34633.8
  5865.719  5865.710  0.500  1302.31  108.275  1.645735  0.175972  34635.4  36351.9  35502.5  34517.6
  5872.787  5872.780  0.500  1334.23  87.017  1.337452  0.144278  28847.4  29924.1  29073.6  28255.9
  5880.029  5880.020  0.500  1325.44  109.028  1.691812  0.183729  35505.5  37812.5  35772.3  35419.8
  5887.446  5887.440  0.500  1314.98  108.358  1.722841  0.188532  35255  36782.6  35636.2  34815.3
  5895.028  5895.020  0.500  1341.04  107.825  1.729530  0.190728  35728.7  37539.3  36414  34915.4
  5902.789  5902.780  0.500  1353.91  107.157  1.722908  0.191549  35694.2  37513.4  36281.7  35591.2
  5910.726  5910.710  0.500  1375.13  106.043  1.722784  0.193135  36148  37534.3  36390.9  35749.1
  5918.821  5918.810  0.500  1366.26  105.982  1.763540  0.199347  35836.4  37349.2  36144.5  35468.9
  5927.076  5927.080  0.500  1363.89  105.475  1.807333  0.206464  35729.4  37094.1  35741.4  35290.9
  5935.541  5935.520  0.500  1358  105.567  1.853311  0.213683  35404.6  37000.8  35861.4  35093.5
  5944.130  5944.140  0.500  1365.75  98.1372  1.752059  0.203611  33073.4  34436.6  33667.4  32853.6
  5952.912  5952.920  0.500  1380.89  104.537  1.878952  0.220432  35456.2  37260.3  36214.8  35423.1
  5961.866  5961.880  0.500  1402.61  103.386  1.880193  0.222693  35676.8  37573.4  36216.9  35543
  5971.003  5971.010  0.500  1409.5  102.264  1.903078  0.227576  35608.9  37533.2  35904.2  35094.6
  5980.322  5980.310  0.500  1403.09  100.91  1.923169  0.232165  34902.9  36958.6  35426.6  34297.6
  5989.770  5989.780  0.500  1555.36  83.1266  1.612780  0.197018  29170.9  36202.8  34726.1  29191.9
  5999.415  5999.420  0.500  1439.78  99.788  1.949252  0.239932  35450.3  37278.8  35897.2  35046.3
  6009.229  6009.240  0.500  1441.15  98.2988  1.946491  0.241936  35071.8  36602.2  35286.5  34702.9
  6019.209  6019.220  0.500  1446.25  96.9496  1.971989  0.247677  34659.9  36253.6  34992.1  34307.3
  6029.390  6029.380  0.500  1439.38  95.626  2.003738  0.254501  34065.1  35594.8  34339.2  33642.6
  6039.697  6039.710  0.500  1446.76  94.2713  2.022205  0.259507  33846  35493.5  33939.7  33108.9
  6050.201  6050.210  0.500  1457.69  92.9068  2.028955  0.263197  33656.4  34885.3  33838.8  33049
  6060.869  6060.880  0.500  1487.03  91.2028  2.012582  0.263759  33807.7  34920.1  34030.5  32863.5
  6071.707  6071.720  0.500  1498.39  89.8857  2.020850  0.267302  33372.1  34966.9  33509.9  32834.5
  6082.727  6082.740  0.500  1503.18  88.5484  2.039137  0.272793  32799.1  34762.6  33192.8  32349.9
  6093.905  6093.920  0.500  1501.88  87.0445  2.059888  0.278729  32301.3  33903.7  32572.9  31952.4
  6105.288  6105.280  0.500  1504.78  85.479  2.078678  0.284344  32107.8  33257.1  31953.2  31308.6
  6116.788  6116.810  0.500  1528.17  83.8875  2.065666  0.285572  31386.4  33411.1  31988.2  31408.6
  6128.487  6128.510  0.500  1536.77  82.1762  2.053619  0.286958  31110  32803.4  31500.5  30872
  6140.365  6140.380  0.500  1551.79  80.3484  2.061030  0.290971  30830.1  32848.3  30611.8  30393.5
  6152.412  6152.430  0.500  1530.18  78.2074  2.052865  0.293028  29504.3  31564.3  29364.7  29238.5