File: xdidata/Data/Cr/Cr-K-acetate.xdi
# XDI/1.0 BlueSky/1.5.3
# Beamline.name: 6BM
# Beamline.xray_source: NSLS-II three-pole wiggler
# Beamline.collimation: paraboloid mirror, 5 nm Rh on 30 nm Pt
# Beamline.focusing: not in use
# Beamline.harmonic_rejection: flat mirror, Si stripe, pitch = 7.0 mrad relative to beam
# Detector.i0: 10 cm N2
# Detector.i1: 25 cm N2
# Detector.i2: 25 cm N2
# Element.symbol: Cr
# Element.edge: K
# Facility.name: NSLS-II
# Facility.energy: 3.0
# Facility.current: 400.8
# Facility.mode: top-off
# Facility.gup: 305882
# Facility.saf: 305422
# Facility.cycle: 2020-1
# Mono.name: Si(111)
# Mono.d_spacing: 3.13532
# Mono.encoder_resolution: 0.0000050 deg/ct
# Mono.angle_offset: 16.0581 deg
# Mono.scan_mode: fixed exit
# Mono.scan_type: step
# Mono.direction: forward in energy
# Sample.name: Cr3(OH)2(OOCCH3)7
# Sample.prep: powder on tape 4x
# Sample.x_position: -74.438 mm
# Sample.y_position: 112.405 mm
# Scan.experimenters: Sarah Nicholas, Bruce Ravel
# Scan.edge_energy: 5989.0
# Scan.start_time: 2020-01-29T17:12:24
# Scan.end_time: 2020-01-30T02:14:17
# Scan.transient_id: 20501
# Scan.uid: 8a546d51-2c87-439f-bd7f-5d2bfd9dddeb
# Scan.plot_hint: ln(I0/It)  --  ln($5/$6)
# Scan.sequence: merge of 16 scans
# Column.1: energy eV
# Column.2: requested_energy eV
# Column.3: measurement_time seconds
# Column.4: mutrans
# Column.5: i0
# Column.6: itrans
# Column.7: irefer
# /////
#  Fisher, ground in AW M&P
# -----
# energy   requested_energy   measurement_time   mutrans   i0   itrans   irefer
5788.98 5789 0.500000 5.059197 47.7539 0.303292 0.052999
5819.01 5819 0.500000 4.974858 47.593 0.328867 0.059392
5849.01 5849 0.500000 4.891816 47.3144 0.355367 0.065736
5879.01 5879 0.500000 4.809193 47.5241 0.387555 0.073706
5909.01 5909 0.500000 4.730837 46.8206 0.412938 0.080720
5938.99 5939 0.500000 4.651867 46.3468 0.442303 0.088634
5961 5961 0.500000 4.596283 46.4733 0.468909 0.095742
5966.99 5967 0.500000 4.580984 46.3008 0.474364 0.096880
5973 5973 0.500000 4.566345 46.1247 0.479536 0.098597
5979 5979 0.500000 4.551450 45.9117 0.484485 0.100245
5979.74 5979.75 0.500000 4.549311 45.8942 0.485334 0.100472
5980.49 5980.5 0.500000 4.548006 45.8799 0.485813 0.100744
5981.24 5981.25 0.500000 4.546557 45.8655 0.486368 0.100683
5981.99 5982 0.500000 4.543679 45.83 0.487386 0.100995
5982.74 5982.75 0.500000 4.542258 45.7705 0.487456 0.101151
5983.49 5983.5 0.500000 4.540439 45.7246 0.487849 0.101226
5984.24 5984.25 0.500000 4.538426 45.6446 0.487980 0.100932
5984.99 5985 0.500000 4.536537 45.5695 0.488096 0.100820
5985.74 5985.75 0.500000 4.534689 45.4587 0.487800 0.100827
5986.49 5986.5 0.500000 4.532972 45.3406 0.487378 0.100865
5987.24 5987.25 0.500000 4.531666 45.1608 0.486074 0.100253
5988 5988 0.500000 4.529420 44.9136 0.484506 0.099381
5988.74 5988.75 0.500000 4.528306 44.4786 0.480343 0.096915
5989.5 5989.5 0.500000 4.527712 43.6903 0.472110 0.092277
5990.25 5990.25 0.500000 4.528843 41.6164 0.449195 0.085585
5991 5991 0.500000 4.527427 35.9214 0.388269 0.072351
5991.75 5991.75 0.500000 4.527792 34.3307 0.370966 0.067765
5992.5 5992.5 0.500000 4.526084 43.9651 0.475873 0.086112
5993.25 5993.25 0.500000 4.522388 46.4304 0.504401 0.090539
5994 5994 0.500000 4.521139 46.5509 0.506339 0.090256
5994.75 5994.75 0.500000 4.521575 46.5125 0.505699 0.089955
5995.5 5995.5 0.500000 4.522227 46.4458 0.504656 0.090213
5996.25 5996.25 0.500000 4.520344 46.3861 0.504948 0.090006
5997 5997 0.500000 4.520274 46.3129 0.504183 0.089140
5997.75 5997.75 0.500000 4.523197 46.2449 0.501986 0.086935
5998.5 5998.5 0.500000 4.526735 46.1836 0.499538 0.084555
5999.25 5999.25 0.500000 4.534650 46.1357 0.495092 0.081697
6000 6000 0.500000 4.546171 46.078 0.488795 0.079227
6000.75 6000.75 0.500000 4.560513 46.0414 0.481463 0.076757
6001.5 6001.5 0.500000 4.578259 46.0065 0.472631 0.074155
6002.25 6002.25 0.500000 4.600052 45.9627 0.462038 0.071555
6003 6003 0.500000 4.622856 45.9333 0.451272 0.069102
6003.75 6003.75 0.500000 4.643441 45.8943 0.441697 0.066936
6004.5 6004.5 0.500000 4.661482 45.8553 0.433489 0.065224
6005.25 6005.25 0.500000 4.676105 45.8186 0.426837 0.063363
6006 6006 0.500000 4.685636 45.7817 0.422437 0.062111
6006.75 6006.75 0.500000 4.691129 45.7384 0.419734 0.061453
6007.5 6007.5 0.500000 4.697415 45.707 0.416819 0.060233
6008.26 6008.25 0.500000 4.701989 45.6746 0.414616 0.059332
6009 6009 0.500000 4.705453 45.644 0.412914 0.058513
6009.75 6009.75 0.500000 4.705162 45.6134 0.412757 0.058143
6010.5 6010.5 0.500000 4.703001 45.604 0.413558 0.059128
6011.26 6011.25 0.500000 4.701889 45.5811 0.413821 0.059805
6012 6012 0.500000 4.700257 45.5806 0.414479 0.061009
6012.75 6012.75 0.500000 4.698849 45.553 0.414813 0.061796
6013.5 6013.5 0.500000 4.696016 45.5579 0.416040 0.062602
6015 6014.99 0.500000 4.688849 45.5024 0.418517 0.063428
6018.06 6018.06 0.500000 4.671530 45.3937 0.424810 0.062986
6021.31 6021.3 0.500000 4.653129 45.3179 0.431998 0.063931
6024.72 6024.71 0.500000 4.628674 45.2242 0.441765 0.066044
6028.3 6028.3 0.500000 4.600905 45.1233 0.453179 0.066227
6032.06 6032.05 0.500000 4.570898 45.0254 0.465980 0.067910
6035.99 6035.98 0.500000 4.546670 44.9032 0.476111 0.069151
6040.09 6040.08 0.500000 4.538465 44.7871 0.478793 0.069554
6044.36 6044.35 0.500000 4.539130 44.6678 0.477196 0.069730
6048.8 6048.79 0.500000 4.535240 44.5188 0.477460 0.070915
6053.42 6053.41 0.500000 4.529258 44.3789 0.478816 0.073403
6058.2 6058.19 0.500000 4.521850 44.1602 0.479995 0.074893
6063.16 6063.15 0.500000 4.513333 43.9417 0.481707 0.075402
6068.29 6068.28 0.500000 4.505792 43.7902 0.483677 0.074038
6073.59 6073.58 0.500000 4.497315 43.6134 0.485820 0.073667
6079.06 6079.05 0.500000 4.485565 43.4359 0.489564 0.076617
6084.7 6084.69 0.500000 4.468543 43.2679 0.496051 0.080201
6090.52 6090.51 0.500000 4.446554 43.0715 0.504780 0.079469
6096.49 6096.49 0.500000 4.426491 42.8327 0.512141 0.076885
6102.65 6102.65 0.500000 4.407057 42.5806 0.519111 0.078264
6108.99 6108.98 0.500000 4.391373 42.3166 0.524064 0.083193
6115.49 6115.48 0.500000 4.376476 42.0152 0.528142 0.086496
6122.16 6122.15 0.500000 4.361162 41.6864 0.532098 0.086902
6129 6128.99 0.500000 4.345450 41.3532 0.536206 0.088806
6136 6136 0.500000 4.329417 40.9589 0.539671 0.090165
6143.2 6143.19 0.500000 4.313984 40.5367 0.542426 0.090243
6150.56 6150.55 0.500000 4.298482 40.0252 0.543948 0.090097
6158.07 6158.07 0.500000 4.282081 39.1602 0.540992 0.089220
6165.78 6165.77 0.500000 4.262899 36.4347 0.513095 0.083222
6173.67 6173.65 0.500000 4.243959 38.8487 0.557570 0.092899
6181.7 6181.69 0.500000 4.223429 38.1523 0.558925 0.095781
6189.91 6189.9 0.500000 4.202548 37.4583 0.560346 0.097120
6198.3 6198.29 0.500000 4.180760 36.7368 0.561656 0.098636
6206.86 6206.85 0.500000 4.159730 35.9712 0.561650 0.099753
6215.58 6215.57 0.500000 4.139767 35.1591 0.560038 0.100660
6224.48 6224.47 0.500000 4.120581 34.3148 0.557184 0.099944
6233.55 6233.55 0.500000 4.101006 33.4329 0.553596 0.098108
6242.79 6242.79 0.500000 4.080568 32.5329 0.549820 0.096834
6252.2 6252.2 0.500000 4.060177 31.591 0.544900 0.097497
6261.79 6261.79 0.500000 4.038216 30.6379 0.540209 0.099792
6271.55 6271.55 0.500000 4.016670 29.6399 0.534000 0.099345
6281.47 6281.47 0.500000 3.995584 28.6478 0.527133 0.098951
6291.57 6291.57 0.500000 3.973539 27.644 0.519992 0.098198
6301.85 6301.85 0.500000 3.951211 26.6457 0.512545 0.097881
6312.29 6312.29 0.500000 3.928749 25.6625 0.504860 0.097056
6322.91 6322.9 0.500000 3.905916 24.6917 0.496988 0.095544
6333.7 6333.69 0.500000 3.882594 23.7522 0.489357 0.094221
6344.66 6344.65 0.500000 3.859959 22.8283 0.481083 0.093769
6355.79 6355.78 0.500000 3.836538 21.9399 0.473326 0.093475
6367.1 6367.08 0.500000 3.814349 21.0708 0.464776 0.093169
6378.57 6378.55 0.500000 3.791835 20.2432 0.456700 0.092520
6390.21 6390.19 0.500000 3.768487 19.4388 0.448897 0.091385
6402.03 6402.01 0.500000 3.745655 18.6748 0.441206 0.090728
6414.02 6413.99 0.500000 3.720744 17.9557 0.434919 0.089900
6426.18 6426.15 0.500000 3.697993 17.2699 0.427933 0.089340
6438.49 6438.48 0.500000 3.672954 16.6098 0.421993 0.088511
6451.01 6450.98 0.500000 3.649000 16.0096 0.416609 0.088271
6463.64 6463.65 0.500000 3.624336 15.317 0.408504 0.087418
6476.51 6476.49 0.500000 3.600815 14.8939 0.406697 0.088196
6489.51 6489.51 0.500000 3.574970 14.3905 0.403211 0.088124
6502.67 6502.7 0.500000 3.548937 13.934 0.400682 0.088164
6516.06 6516.05 0.500000 3.525810 13.4819 0.396786 0.088237
6529.56 6529.58 0.500000 3.500736 13.0605 0.394117 0.088657
6543.26 6543.28 0.500000 3.475758 12.6563 0.391574 0.088801
6557.14 6557.16 0.500000 3.450356 12.267 0.389287 0.088643
6571.18 6571.2 0.500000 3.425375 11.9017 0.387246 0.089387
6585.39 6585.41 0.500000 3.399094 11.5568 0.386032 0.089909
6599.8 6599.8 0.500000 3.373644 11.2288 0.384767 0.090581
6614.33 6614.36 0.500000 3.348083 10.9043 0.383309 0.090963
6629.07 6629.09 0.500000 3.322440 10.5946 0.382096 0.091430
6643.97 6643.99 0.500000 3.296072 10.3001 0.381405 0.092077
6659.04 6659.06 0.500000 3.269939 10.0135 0.380610 0.093063
6674.28 6674.3 0.500000 3.243325 9.733153 0.379929 0.093459
6689.7 6689.72 0.500000 3.216796 9.458175 0.379122 0.094414
6705.28 6705.31 0.500000 3.190253 9.191696 0.378347 0.094760
6721.04 6721.06 0.500000 3.164593 8.931006 0.377178 0.095158
6736.96 6736.99 0.500000 3.137393 8.676824 0.376535 0.096330
6753.07 6753.09 0.500000 3.111275 8.424942 0.375279 0.096857
6769.34 6769.37 0.500000 3.084935 8.184919 0.374311 0.097598
6785.78 6785.81 0.500000 3.058404 7.947083 0.373211 0.098347
6802.39 6802.42 0.500000 3.031286 7.729412 0.372976 0.099282
6819.18 6819.21 0.500000 3.004067 7.479463 0.370861 0.099484
6836.14 6836.17 0.500000 2.977975 7.344008 0.373772 0.101117
6841.84 6841.86 0.500000 2.970158 7.134245 0.365958 0.099513