File: xdidata/Data/Cr/Cr-K-nitrate.xdi
# XDI/1.0 BlueSky/1.5.3
# Beamline.name: 6BM
# Beamline.xray_source: NSLS-II three-pole wiggler
# Beamline.collimation: paraboloid mirror, 5 nm Rh on 30 nm Pt
# Beamline.focusing: not in use
# Beamline.harmonic_rejection: flat mirror, Si stripe, pitch = 7.0 mrad relative to beam
# Detector.i0: 10 cm N2
# Detector.i1: 25 cm N2
# Detector.i2: 25 cm N2
# Element.symbol: Cr
# Element.edge: K
# Facility.name: NSLS-II
# Facility.energy: 3.0
# Facility.current: 399.7
# Facility.mode: top-off
# Facility.gup: 305882
# Facility.saf: 305422
# Facility.cycle: 2020-1
# Mono.name: Si(111)
# Mono.d_spacing: 3.13532
# Mono.encoder_resolution: 0.0000050 deg/ct
# Mono.angle_offset: 16.0581 deg
# Mono.scan_mode: fixed exit
# Mono.scan_type: step
# Mono.direction: forward in energy
# Sample.name: Cr(NO3)3.9H2O
# Sample.prep: powder on tape 2x
# Sample.x_position: -74.438 mm
# Sample.y_position: 112.405 mm
# Scan.experimenters: Sarah Nicholas, Bruce Ravel
# Scan.edge_energy: 5989.0
# Scan.start_time: 2020-01-29T17:38:26
# Scan.end_time: 2020-01-30T04:05:10
# Scan.transient_id: 20504
# Scan.uid: 5995548d-a23c-4200-a626-7663cf0b30c8
# Scan.plot_hint: ln(I0/It)  --  ln($5/$6)
# Scan.sequence: merge of 16 scans
# Column.1: energy eV
# Column.2: requested_energy eV
# Column.3: measurement_time seconds
# Column.4: mutrans
# Column.5: i0
# Column.6: itrans
# Column.7: irefer
# /////
#  Fisher, ground in AW M&P stored in N2 box
# -----
# energy   requested_energy   measurement_time   mutrans   i0   itrans   irefer
5789 5789 0.500000 2.987266 47.7404 2.407624 0.430112
5819.01 5819 0.500000 2.932943 47.6286 2.536001 0.465040
5849.01 5849 0.500000 2.879036 47.3559 2.661151 0.500831
5879.01 5879 0.500000 2.826063 47.5752 2.818893 0.544334
5909.01 5909 0.500000 2.774523 46.8891 2.925168 0.579119
5939.47 5939 0.500000 2.723806 46.4138 3.048432 0.618508
5960.99 5961 0.500000 2.687479 46.5104 3.165370 0.653394
5966.99 5967 0.500000 2.677528 46.3372 3.185144 0.660238
5973 5973 0.500000 2.668013 46.1476 3.202448 0.666885
5979 5979 0.500000 2.658379 45.9334 3.218457 0.672569
5979.74 5979.75 0.500000 2.657042 45.8934 3.219947 0.673092
5980.49 5980.5 0.500000 2.655957 45.8457 3.220106 0.673669
5981.24 5981.25 0.500000 2.654893 45.8023 3.220482 0.673831
5981.99 5982 0.500000 2.653696 45.7589 3.221287 0.673838
5982.74 5982.75 0.500000 2.652530 45.7201 3.222298 0.674268
5983.49 5983.5 0.500000 2.651201 45.6689 3.222942 0.674776
5984.24 5984.25 0.500000 2.650199 45.614 3.222314 0.674660
5985 5985 0.500000 2.649060 45.5334 3.220288 0.673928
5985.75 5985.75 0.500000 2.647859 45.4515 3.218351 0.673201
5986.49 5986.5 0.500000 2.646754 45.336 3.213702 0.671748
5987.25 5987.25 0.500000 2.645556 45.1592 3.205004 0.668751
5988 5988 0.500000 2.644569 44.9025 3.189948 0.662083
5988.74 5988.75 0.500000 2.643535 44.4811 3.163268 0.647183
5989.5 5989.5 0.500000 2.642968 43.6994 3.109448 0.614631
5990.25 5990.25 0.500000 2.643821 41.6424 2.960550 0.570520
5991 5991 0.500000 2.643890 35.96 2.556374 0.483097
5991.75 5991.75 0.500000 2.640220 34.2949 2.447033 0.454829
5992.5 5992.5 0.500000 2.639274 43.9414 3.138320 0.575584
5993.25 5993.25 0.500000 2.638346 46.4344 3.319383 0.602449
5993.99 5994 0.500000 2.637002 46.5522 3.332250 0.601034
5994.75 5994.75 0.500000 2.636059 46.4827 3.330447 0.599198
5995.5 5995.5 0.500000 2.635644 46.3927 3.325379 0.599020
5996.25 5996.25 0.500000 2.635397 46.3086 3.320170 0.598678
5997 5997 0.500000 2.636116 46.2315 3.312253 0.592630
5997.75 5997.75 0.500000 2.637850 46.1527 3.300922 0.579659
5998.5 5998.5 0.500000 2.641886 46.0947 3.283468 0.563596
5999.25 5999.25 0.500000 2.648132 46.0536 3.260121 0.546656
6000 6000 0.500000 2.655573 46.0213 3.233750 0.530637
6000.75 6000.75 0.500000 2.664211 46.008 3.204954 0.516877
6001.5 6001.5 0.500000 2.672439 45.963 3.175708 0.505173
6002.25 6002.25 0.500000 2.680748 45.9389 3.147603 0.494708
6003 6003 0.500000 2.690113 45.9327 3.117876 0.484972
6003.75 6003.75 0.500000 2.701524 45.905 3.080802 0.474710
6004.5 6004.5 0.500000 2.714442 45.8689 3.039016 0.464074
6005.25 6005.25 0.500000 2.727245 45.8593 2.999595 0.453714
6006 6006 0.500000 2.740276 45.8349 2.959195 0.442903
6006.75 6006.75 0.500000 2.755134 45.8102 2.914205 0.432178
6007.5 6007.5 0.500000 2.770240 45.7752 2.868256 0.421387
6008.25 6008.25 0.500000 2.781528 45.759 2.834912 0.412083
6009 6009 0.500000 2.785043 45.7366 2.823576 0.406361
6009.75 6009.75 0.500000 2.782685 45.7108 2.828615 0.406706
6010.5 6010.5 0.500000 2.776420 45.6868 2.844952 0.412837
6011.25 6011.25 0.500000 2.767834 45.6621 2.867913 0.422581
6012 6012 0.500000 2.759227 45.6404 2.891342 0.432919
6012.75 6012.75 0.500000 2.752811 45.6191 2.908668 0.441468
6013.5 6013.5 0.500000 2.749098 45.5958 2.917989 0.447120
6015.01 6014.99 0.500000 2.747243 45.5481 2.920294 0.449431
6018.07 6018.06 0.500000 2.747436 45.4913 2.916079 0.438604
6021.31 6021.3 0.500000 2.734943 45.4047 2.947160 0.443780
6024.71 6024.71 0.500000 2.714723 45.3343 3.002569 0.455273
6028.31 6028.3 0.500000 2.697603 45.2485 3.048745 0.454185
6032.05 6032.05 0.500000 2.678375 45.153 3.101188 0.459609
6035.99 6035.98 0.500000 2.661975 45.0439 3.144896 0.465692
6040.09 6040.08 0.500000 2.653834 44.942 3.163423 0.465938
6044.35 6044.35 0.500000 2.652316 44.8225 3.159820 0.470294
6048.8 6048.79 0.500000 2.651436 44.6867 3.153044 0.476183
6053.42 6053.41 0.500000 2.649907 44.5321 3.146945 0.488325
6058.2 6058.19 0.500000 2.646595 44.3208 3.142392 0.496943
6063.16 6063.15 0.500000 2.641452 44.1033 3.143107 0.498071
6068.29 6068.28 0.500000 2.636326 43.94 3.147533 0.487990
6073.59 6073.58 0.500000 2.630430 43.7647 3.153516 0.485942
6079.06 6079.05 0.500000 2.622732 43.5726 3.163940 0.503235
6084.69 6084.69 0.500000 2.612116 43.3714 3.182914 0.520371
6090.52 6090.51 0.500000 2.599022 43.15 3.208423 0.511937
6096.5 6096.49 0.500000 2.585584 42.9138 3.234020 0.493179
6102.66 6102.65 0.500000 2.573402 42.6492 3.253469 0.496312
6108.99 6108.98 0.500000 2.562421 42.3839 3.268926 0.525233
6115.49 6115.48 0.500000 2.552342 42.0919 3.279291 0.543301
6122.16 6122.15 0.500000 2.542253 41.7695 3.287189 0.543807
6129 6128.99 0.500000 2.532742 41.419 3.290750 0.550234
6136 6136 0.500000 2.523431 41.0266 3.290075 0.556639
6143.2 6143.19 0.500000 2.514266 40.5842 3.284592 0.555595
6150.56 6150.55 0.500000 2.504723 40.075 3.274515 0.548975
6158.08 6158.07 0.500000 2.494494 39.1993 3.235929 0.540714
6165.78 6165.77 0.500000 2.483262 36.4709 3.044708 0.500374
6173.66 6173.65 0.500000 2.471059 38.8806 3.285833 0.553725
6181.7 6181.69 0.500000 2.457834 38.1749 3.269161 0.566445
6189.91 6189.9 0.500000 2.444357 37.4633 3.251803 0.570235
6198.3 6198.29 0.500000 2.431198 36.7238 3.229868 0.572075
6206.86 6206.85 0.500000 2.418199 35.953 3.203521 0.573654
6215.58 6215.57 0.500000 2.405320 35.1315 3.170926 0.576464
6224.48 6224.47 0.500000 2.392396 34.2778 3.134190 0.568080
6233.56 6233.55 0.500000 2.379763 33.3764 3.090602 0.553887
6242.79 6242.79 0.500000 2.367059 32.4579 3.044025 0.542010
6252.2 6252.2 0.500000 2.354522 31.4962 2.991148 0.541545
6261.79 6261.79 0.500000 2.341404 30.5198 2.936724 0.547557
6271.55 6271.55 0.500000 2.327906 29.5221 2.879375 0.541304
6281.47 6281.47 0.500000 2.314063 28.5208 2.820535 0.534931
6291.57 6291.57 0.500000 2.299767 27.5329 2.762052 0.527340
6301.85 6301.85 0.500000 2.285169 26.539 2.701528 0.521928
6312.3 6312.29 0.500000 2.270502 25.5592 2.640289 0.513862
6322.9 6322.9 0.500000 2.255837 24.6017 2.578925 0.501285
6333.7 6333.69 0.500000 2.241083 23.6687 2.518023 0.491106
6344.66 6344.65 0.500000 2.226423 22.7533 2.456384 0.483675
6355.8 6355.78 0.500000 2.211572 21.8684 2.396170 0.477852
6367.09 6367.08 0.500000 2.196770 21.0122 2.336659 0.473717
6378.58 6378.55 0.500000 2.181989 20.1959 2.279347 0.466051
6390.19 6390.19 0.500000 2.167123 19.4017 2.222421 0.457881
6402.03 6402.01 0.500000 2.151940 18.6443 2.168325 0.450095
6414 6413.99 0.500000 2.136621 17.9347 2.117976 0.443093
6426.14 6426.15 0.500000 2.121023 17.26 2.070225 0.437264
6438.46 6438.48 0.500000 2.105090 16.6063 2.023755 0.429136
6450.97 6450.98 0.500000 2.089203 16.0103 1.982341 0.424984
6463.63 6463.65 0.500000 2.073173 15.3249 1.928067 0.418039
6476.48 6476.49 0.500000 2.057001 14.9026 1.905474 0.416856
6489.49 6489.51 0.500000 2.041013 14.4027 1.871178 0.413536
6502.67 6502.7 0.500000 2.024776 13.939 1.840531 0.409833
6516.03 6516.05 0.500000 2.008762 13.4947 1.810581 0.407156
6529.55 6529.58 0.500000 1.992598 13.0847 1.784141 0.405307
6543.26 6543.28 0.500000 1.976098 12.6849 1.758383 0.402715
6557.14 6557.16 0.500000 1.960145 12.3068 1.733444 0.399960
6571.18 6571.2 0.500000 1.943783 11.9381 1.709160 0.398205
6585.39 6585.41 0.500000 1.927122 11.5979 1.688333 0.397195
6599.78 6599.8 0.500000 1.910713 11.2725 1.668124 0.396389
6614.34 6614.36 0.500000 1.894035 10.9537 1.648229 0.395319
6629.07 6629.09 0.500000 1.877387 10.6436 1.628442 0.394118
6643.98 6643.99 0.500000 1.860639 10.3484 1.610028 0.393149
6659.04 6659.06 0.500000 1.844084 10.0617 1.591539 0.392655
6674.28 6674.3 0.500000 1.826953 9.779528 1.573637 0.391926
6689.7 6689.72 0.500000 1.810553 9.504303 1.554633 0.390834
6705.29 6705.31 0.500000 1.793844 9.234269 1.535908 0.389417
6721.05 6721.06 0.500000 1.777093 8.972412 1.517581 0.388176
6736.97 6736.99 0.500000 1.760336 8.715997 1.499079 0.386995
6753.06 6753.09 0.500000 1.743372 8.465324 1.480879 0.386260
6769.35 6769.37 0.500000 1.726349 8.215653 1.461863 0.384937
6785.78 6785.81 0.500000 1.709577 7.973653 1.442810 0.383335
6802.4 6802.42 0.500000 1.692515 7.755295 1.427455 0.383213
6819.19 6819.21 0.500000 1.675759 7.501815 1.404115 0.380404
6836.14 6836.17 0.500000 1.658436 7.365057 1.402609 0.383578
6841.86 6841.86 0.500000 1.652908 7.155196 1.370220 0.375734