File: xdidata/Data/Nb/Nb-K-CeriumTitanoniobate.xdi
# XDI/1.0 BlueSky/1.10.0 BMM/2023-1.0-py310-tiled
# Beamline.name: BMM (06BM) -- Beamline for Materials Measurement (NIST)
# Beamline.xray_source: NSLS-II three-pole wiggler
# Beamline.collimation: paraboloid mirror, 5 nm Rh on 30 nm Pt
# Beamline.focusing: not in use
# Beamline.harmonic_rejection: flat mirror, Pt stripe, pitch = 7.0 mrad relative to beam
# Beamline.software: Bluesky 1.10.0, Ophyd 1.7.0, DataBroker 2.0.0b13, Python 3.10.8, 2023-1.0-py310-tiled
# Detector.I0: 10 cm N2
# Detector.I1: 25 cm N2
# Detector.I2: 25 cm N2
# Element.symbol: Nb
# Element.edge: K
# Element.reference: Nb
# Element.reference_material: Nb foil
# Facility.name: NSLS-II
# Facility.energy: 3.0
# Facility.current: 400.7
# Facility.mode: top-off
# Facility.GUP: 301027
# Facility.SAF: 310583
# Facility.cycle: 2023-2
# Mono.name: Si(111)
# Mono.d_spacing: 3.13519
# Mono.encoder_resolution: 0.0000050 deg/ct
# Mono.angle_offset: 16.0754 deg
# Mono.scan_mode: pseudo channel cut
# Mono.scan_type: step
# Mono.direction: forward in energy
# Sample.name: CeTiNbO6
# Sample.prep: powder in PEG pellet
# Sample.x: 117.785 mm
# Sample.y: 114.695 mm
# Sample.SDD_position: 205.000 mm
# Scan.experimenters: Bruce Ravel
# Scan.edge_energy: 18985.6
# Scan.start_time: 2023-06-23T20:39:52
# Scan.end_time: 2023-06-23T20:47:32
# Scan.transient_id: 85016
# Scan.uid: 27c241a0-c5c7-48f1-90a5-b652c1484fde
# Scan.plot_hint: ln(I0/It)  --  ln($5/$6)
# Column.1: energy eV
# Column.2: requested_energy eV
# Column.3: measurement_time seconds
# Column.4: xmu
# Column.5: I0 nA
# Column.6: It nA
# Column.7: Ir nA
# ///////////
# sample courtesy Martin Stennett, University of Sheffield
# -----------
# energy  requested_energy  measurement_time  xmu  I0  It  Ir
  18785.510  18785.600  0.500  0.633658  9.968270  5.289634  4.578394
  18815.652  18815.600  0.500  0.628830  9.908697  5.283471  4.574837
  18845.689  18845.600  0.500  0.624129  9.840744  5.271961  4.567232
  18875.745  18875.600  0.500  0.619494  9.765244  5.255816  4.554464
  18905.692  18905.600  0.500  0.615876  9.686956  5.232579  4.534293
  18935.720  18935.600  0.500  0.613355  9.608435  5.203267  4.504534
  18957.638  18957.600  0.500  0.615667  9.558961  5.164517  4.464219
  18963.681  18963.600  0.500  0.617346  9.538799  5.144982  4.441914
  18969.650  18969.600  0.500  0.620422  9.522339  5.120330  4.411915
  18975.623  18975.600  0.500  0.625693  9.506455  5.084914  4.361419
  18976.492  18976.500  0.500  0.626927  9.504569  5.077636  4.350827
  18977.409  18977.400  0.500  0.628495  9.490296  5.062067  4.335316
  18978.294  18978.300  0.500  0.629609  9.469831  5.045526  4.311253
  18979.195  18979.200  0.500  0.631034  9.460614  5.033437  4.294102
  18980.128  18980.100  0.500  0.633158  9.459840  5.022348  4.274432
  18980.998  18981.000  0.500  0.635120  9.461227  5.013240  4.255834
  18981.868  18981.900  0.500  0.637307  9.465377  5.004479  4.232687
  18982.769  18982.800  0.500  0.640136  9.475335  4.995595  4.205726
  18983.639  18983.700  0.500  0.643382  9.476930  4.980241  4.165472
  18984.572  18984.600  0.500  0.647379  9.481868  4.962958  4.108628
  18985.458  18985.500  0.500  0.651997  9.480364  4.939309  4.034697
  18986.392  18986.400  0.500  0.658825  9.476010  4.903446  3.937022
  18987.294  18987.300  0.500  0.666877  9.487545  4.870045  3.835546
  18988.180  18988.200  0.500  0.678901  9.472782  4.804348  3.719325
  18989.098  18989.100  0.500  0.693923  9.466273  4.729465  3.605909
  18989.969  18990.000  0.500  0.713139  9.471114  4.641825  3.498181
  18990.903  18990.900  0.500  0.736990  9.469663  4.531727  3.384688
  18991.805  18991.800  0.500  0.763708  9.466071  4.410577  3.264792
  18992.739  18992.700  0.500  0.792929  9.458289  4.280039  3.135965
  18993.626  18993.600  0.500  0.820586  9.453951  4.161381  3.016061
  18994.449  18994.500  0.500  0.845955  9.451990  4.056297  2.903146
  18995.368  18995.400  0.500  0.869456  9.451902  3.962043  2.796873
  18996.287  18996.300  0.500  0.888499  9.448248  3.885805  2.700922
  18997.189  18997.200  0.500  0.905770  9.445262  3.818063  2.609548
  18998.061  18998.100  0.500  0.924466  9.440179  3.745328  2.515651
  18998.995  18999.000  0.500  0.947909  9.443510  3.659836  2.410658
  18999.899  18999.900  0.500  0.980913  9.445182  3.541646  2.285646
  19000.786  19000.800  0.500  1.022496  9.426828  3.390793  2.150259
  19001.689  19001.700  0.500  1.076234  9.428503  3.213958  2.007538
  19002.609  19002.600  0.500  1.143777  9.426757  3.003492  1.854928
  19003.528  19003.500  0.500  1.219175  9.428428  2.785853  1.709083
  19004.400  19004.400  0.500  1.297710  9.418067  2.572608  1.575184
  19005.304  19005.300  0.500  1.378568  9.412916  2.371481  1.455099
  19006.176  19006.200  0.500  1.459659  9.411859  2.186521  1.348678
  19007.111  19007.100  0.500  1.539944  9.410243  2.017491  1.251080
  19007.999  19008.000  0.500  1.605931  9.413273  1.889269  1.176786
  19008.840  19008.900  0.500  1.659812  9.416325  1.790747  1.118169
  19009.950  19009.800  0.500  1.708234  9.393324  1.701934  1.062610
  19010.458  19010.600  0.500  1.720958  9.391984  1.680176  1.047931
  19013.504  19013.610  0.500  1.733735  9.396903  1.659714  1.028101
  19016.742  19016.800  0.500  1.722862  9.389905  1.676608  1.038198
  19020.076  19020.160  0.500  1.770975  9.387547  1.597450  0.984751
  19023.618  19023.680  0.500  1.852357  9.384158  1.472065  0.897723
  19027.320  19027.380  0.500  1.830306  9.367879  1.502275  0.905856
  19031.182  19031.250  0.500  1.721749  9.351662  1.671640  1.010813
  19035.269  19035.300  0.500  1.624519  9.345645  1.841152  1.135088
  19039.501  19039.510  0.500  1.564692  9.328686  1.951117  1.215083
  19043.893  19043.890  0.500  1.535629  9.315354  2.005785  1.246885
  19048.416  19048.450  0.500  1.526956  9.305542  2.021125  1.251875
  19053.147  19053.180  0.500  1.519737  9.282538  2.030736  1.262154
  19058.057  19058.080  0.500  1.516333  9.282825  2.037723  1.272200
  19063.128  19063.150  0.500  1.520111  9.276775  2.028716  1.255932
  19068.394  19068.390  0.500  1.537510  9.263975  1.990972  1.222112
  19073.822  19073.810  0.500  1.570565  9.241713  1.921608  1.187270
  19079.413  19079.390  0.500  1.600613  9.228461  1.862052  1.161808
  19085.167  19085.150  0.500  1.613983  9.215386  1.834720  1.144860
  19091.069  19091.080  0.500  1.614871  9.195370  1.829109  1.141176
  19097.167  19097.180  0.500  1.606652  9.184443  1.842013  1.147383
  19103.444  19103.450  0.500  1.588168  9.164524  1.872307  1.160353
  19109.935  19109.890  0.500  1.570336  9.150487  1.903076  1.179587
  19116.477  19116.500  0.500  1.558691  9.121904  1.919352  1.198903
  19123.265  19123.290  0.500  1.545253  9.115434  1.943938  1.224074
  19130.251  19130.250  0.500  1.534939  9.093331  1.959329  1.237002
  19137.435  19137.370  0.500  1.528344  9.076764  1.968700  1.241355
  19144.656  19144.670  0.500  1.523470  9.058036  1.974237  1.241070
  19152.125  19152.150  0.500  1.523244  9.040703  1.970905  1.239260
  19159.809  19159.790  0.500  1.527406  9.020431  1.958318  1.223408
  19167.563  19167.600  0.500  1.530167  9.000116  1.948522  1.212238
  19175.631  19175.590  0.500  1.530624  8.976671  1.942558  1.219297
  19183.786  19183.750  0.500  1.529116  8.945726  1.938782  1.235757
  19192.029  19192.070  0.500  1.523776  8.945677  1.949152  1.244184
  19200.602  19200.570  0.500  1.517516  8.916161  1.954921  1.245700
  19209.265  19209.250  0.500  1.513515  8.892069  1.957455  1.242242
  19218.113  19218.090  0.500  1.514033  8.871757  1.951972  1.231744
  19227.133  19227.100  0.500  1.512531  8.850431  1.950206  1.226725
  19236.306  19236.290  0.500  1.505713  8.828228  1.958622  1.233171
  19245.668  19245.650  0.500  1.496692  8.796527  1.969274  1.245826
  19255.201  19255.170  0.500  1.491062  8.782739  1.977288  1.260424
  19264.907  19264.870  0.500  1.489755  8.754492  1.973506  1.264642
  19274.786  19274.750  0.500  1.490033  8.728789  1.967166  1.258788
  19284.789  19284.790  0.500  1.491391  8.705938  1.959354  1.247537
  19295.032  19295.000  0.500  1.489916  8.679188  1.956215  1.241663
  19305.367  19305.390  0.500  1.485254  8.657752  1.960503  1.244537
  19316.009  19315.950  0.500  1.478507  8.628187  1.967035  1.252041
  19326.694  19326.680  0.500  1.474492  8.591320  1.966510  1.254760
  19337.622  19337.580  0.500  1.473604  8.575437  1.964619  1.258720
  19348.628  19348.650  0.500  1.473486  8.549333  1.958870  1.256732
  19359.975  19359.890  0.500  1.470541  8.524418  1.958921  1.257401
  19371.303  19371.310  0.500  1.464617  8.486744  1.961851  1.258144
  19382.974  19382.890  0.500  1.457167  8.466650  1.971842  1.264275
  19394.660  19394.650  0.500  1.451988  8.434420  1.974535  1.267086
  19406.591  19406.580  0.500  1.448614  8.408151  1.975038  1.266536
  19418.702  19418.680  0.500  1.447507  8.378907  1.970348  1.265540
  19431.027  19430.950  0.500  1.445931  8.350739  1.966822  1.267049
  19443.418  19443.390  0.500  1.442682  8.314697  1.964706  1.267679
  19456.058  19456.010  0.500  1.437995  8.283068  1.966427  1.267887
  19468.830  19468.790  0.500  1.434238  8.163139  1.945250  1.256127
  19481.803  19481.750  0.500  1.430810  8.219123  1.965318  1.269763
  19494.960  19494.880  0.500  1.427722  8.187013  1.963693  1.268975
  19508.202  19508.180  0.500  1.424832  8.204594  1.973606  1.277157
  19521.696  19521.650  0.500  1.420861  8.161469  1.971043  1.274226
  19535.326  19535.300  0.500  1.416822  8.126296  1.970492  1.276408
  19549.109  19549.110  0.500  1.411509  8.095256  1.973422  1.280886
  19563.181  19563.100  0.500  1.408007  8.057296  1.971059  1.281422
  19577.290  19577.260  0.500  1.404313  8.026384  1.970763  1.282796
  19591.605  19591.590  0.500  1.400152  7.987060  1.969286  1.281895
  19606.178  19606.090  0.500  1.396523  7.910523  1.957504  1.275091
  19620.873  19620.760  0.500  1.392109  7.921867  1.968985  1.283006
  19635.608  19635.600  0.500  1.388305  7.865159  1.962340  1.279933
  19650.653  19650.620  0.500  1.384380  7.849383  1.966105  1.284467
  19665.874  19665.800  0.500  1.380287  7.805190  1.963054  1.284291
  19681.204  19681.160  0.500  1.376362  7.779134  1.964196  1.287453
  19696.712  19696.690  0.500  1.372044  7.739106  1.962546  1.287245
  19712.448  19712.390  0.500  1.367400  7.698616  1.961364  1.286990
  19728.347  19728.260  0.500  1.363234  7.661231  1.959989  1.287143
  19744.357  19744.310  0.500  1.358421  7.535711  1.937178  1.273235
  19760.565  19760.520  0.500  1.354083  7.586442  1.958698  1.287812
  19776.954  19776.910  0.500  1.349536  7.549076  1.957932  1.289593
  19793.508  19793.470  0.500  1.345524  7.507097  1.954873  1.289111
  19810.210  19810.200  0.500  1.341065  7.462326  1.951897  1.288616
  19827.114  19827.100  0.500  1.336933  7.432929  1.952259  1.290906
  19838.497  19838.460  0.500  1.333151  7.398977  1.950704  1.290694