File: xdidata/Data/Nb/Nb-K-NiobiumPentoxide.xdi
# XDI/1.0 BlueSky/1.10.0 BMM/2023-1.0-py310-tiled
# Beamline.name: BMM (06BM) -- Beamline for Materials Measurement (NIST)
# Beamline.xray_source: NSLS-II three-pole wiggler
# Beamline.collimation: paraboloid mirror, 5 nm Rh on 30 nm Pt
# Beamline.focusing: not in use
# Beamline.harmonic_rejection: flat mirror, Pt stripe, pitch = 7.0 mrad relative to beam
# Beamline.software: Bluesky 1.10.0, Ophyd 1.7.0, DataBroker 2.0.0b13, Python 3.10.8, 2023-1.0-py310-tiled
# Detector.I0: 10 cm N2
# Detector.I1: 25 cm N2
# Detector.I2: 25 cm N2
# Element.symbol: Nb
# Element.edge: K
# Element.reference: Nb
# Element.reference_material: Nb foil
# Facility.name: NSLS-II
# Facility.energy: 3.0
# Facility.current: 399.3
# Facility.mode: top-off
# Facility.GUP: 301027
# Facility.SAF: 310583
# Facility.cycle: 2023-2
# Mono.name: Si(111)
# Mono.d_spacing: 3.13519
# Mono.encoder_resolution: 0.0000050 deg/ct
# Mono.angle_offset: 16.0754 deg
# Mono.scan_mode: pseudo channel cut
# Mono.scan_type: step
# Mono.direction: forward in energy
# Sample.name: Nb2O5
# Sample.prep: powder in PEG pellet
# Sample.x: 117.785 mm
# Sample.y: 114.695 mm
# Sample.SDD_position: 205.000 mm
# Scan.experimenters: Bruce Ravel
# Scan.edge_energy: 18985.6
# Scan.start_time: 2023-06-23T20:15:37
# Scan.end_time: 2023-06-23T20:23:08
# Scan.transient_id: 85001
# Scan.uid: 6f661fdc-5c7f-4198-b5db-7da75444c5d4
# Scan.plot_hint: ln(I0/It)  --  ln($5/$6)
# Column.1: energy eV
# Column.2: requested_energy eV
# Column.3: measurement_time seconds
# Column.4: xmu
# Column.5: I0 nA
# Column.6: It nA
# Column.7: Ir nA
# ///////////
# sample courtesy Martin Stennett, University of Sheffield
# -----------
# energy  requested_energy  measurement_time  xmu  I0  It  Ir
  18785.464  18785.600  0.500  -0.162050  10.0463  11.8137  10.2223
  18815.606  18815.600  0.500  -0.163748  9.988668  11.7658  10.1863
  18845.720  18845.600  0.500  -0.164919  9.912496  11.6898  10.1282
  18875.745  18875.600  0.500  -0.165571  9.832278  11.6027  10.0574
  18905.661  18905.600  0.500  -0.164710  9.753686  11.5001  9.968129
  18935.642  18935.600  0.500  -0.160869  9.680549  11.3701  9.849891
  18957.654  18957.600  0.500  -0.151027  9.626065  11.1954  9.679941
  18963.587  18963.600  0.500  -0.146169  9.604855  11.1166  9.596887
  18969.713  18969.600  0.500  -0.137907  9.630076  11.0541  9.526953
  18975.559  18975.600  0.500  -0.125808  9.608250  10.8964  9.352350
  18976.444  18976.500  0.500  -0.123419  9.605485  10.8672  9.317659
  18977.314  18977.400  0.500  -0.120824  9.593662  10.8257  9.272867
  18978.199  18978.300  0.500  -0.117885  9.581919  10.7808  9.222078
  18979.084  18979.200  0.500  -0.114384  9.569006  10.7286  9.162232
  18980.033  18980.100  0.500  -0.110559  9.555321  10.6724  9.097596
  18980.919  18981.000  0.500  -0.106416  9.559708  10.6331  9.043261
  18981.883  18981.900  0.500  -0.101290  9.563409  10.5828  8.969769
  18982.737  18982.800  0.500  -0.095584  9.561802  10.5209  8.883853
  18983.655  18983.700  0.500  -0.089130  9.578062  10.471  8.791055
  18984.572  18984.600  0.500  -0.080779  9.584891  10.3913  8.650575
  18985.458  18985.500  0.500  -0.071529  9.579233  10.2895  8.474428
  18986.376  18986.400  0.500  -0.059050  9.581408  10.1642  8.243310
  18987.310  18987.300  0.500  -0.042369  9.575302  9.989719  7.947906
  18988.196  18988.200  0.500  -0.021685  9.574997  9.784898  7.642053
  18989.082  18989.100  0.500  0.007084  9.571961  9.504396  7.303592
  18990.032  18990.000  0.500  0.046513  9.567843  9.133009  6.922172
  18990.887  18990.900  0.500  0.094230  9.567997  8.707577  6.536003
  18991.821  18991.800  0.500  0.154302  9.566757  8.198835  6.099157
  18992.723  18992.700  0.500  0.219502  9.559056  7.675144  5.658055
  18993.578  18993.600  0.500  0.282986  9.569095  7.210600  5.261805
  18994.528  18994.500  0.500  0.346318  9.561539  6.762759  4.875286
  18995.431  18995.400  0.500  0.397785  9.557592  6.420849  4.563739
  18996.287  18996.300  0.500  0.435735  9.550236  6.176986  4.327420
  18997.205  18997.200  0.500  0.466004  9.549120  5.992118  4.128317
  18998.124  18998.100  0.500  0.495067  9.547996  5.819792  3.938015
  18998.980  18999.000  0.500  0.528135  9.551637  5.632639  3.743734
  18999.899  18999.900  0.500  0.575917  9.544526  5.365829  3.499291
  19000.834  19000.800  0.500  0.643017  9.535802  5.013008  3.207184
  19001.674  19001.700  0.500  0.728943  9.537053  4.600854  2.896984
  19002.561  19002.600  0.500  0.844581  9.540905  4.100085  2.546391
  19003.496  19003.500  0.500  0.993364  9.525081  3.527412  2.168754
  19004.384  19004.400  0.500  1.158512  9.530241  2.992048  1.830709
  19005.288  19005.300  0.500  1.346539  9.524923  2.477805  1.513893
  19006.191  19006.200  0.500  1.542320  9.525147  2.037280  1.247278
  19007.048  19007.100  0.500  1.721751  9.526323  1.702858  1.046514
  19007.968  19008.000  0.500  1.889936  9.528470  1.439576  0.888338
  19008.887  19008.900  0.500  2.022826  9.522625  1.259664  0.779506
  19009.776  19009.800  0.500  2.109131  9.514368  1.154505  0.714554
  19010.616  19010.600  0.500  2.160271  9.517214  1.097277  0.678565
  19013.663  19013.610  0.500  2.234203  9.505499  1.017824  0.625268
  19016.853  19016.800  0.500  2.279674  9.493921  0.971394  0.595582
  19020.219  19020.160  0.500  2.310495  9.488887  0.941413  0.574548
  19023.697  19023.680  0.500  2.342213  9.475374  0.910723  0.549602
  19027.431  19027.380  0.500  2.233476  9.471367  1.014907  0.606520
  19031.278  19031.250  0.500  2.068470  9.461201  1.195697  0.717314
  19035.285  19035.300  0.500  1.939578  9.442822  1.357544  0.830697
  19039.517  19039.510  0.500  1.860451  9.435432  1.468176  0.909172
  19043.909  19043.890  0.500  1.823377  9.421043  1.521305  0.940514
  19048.479  19048.450  0.500  1.786140  9.405800  1.576468  0.971777
  19053.211  19053.180  0.500  1.753798  9.379171  1.623676  1.004028
  19058.136  19058.080  0.500  1.757797  9.383364  1.617921  1.004359
  19063.192  19063.150  0.500  1.786745  9.376135  1.570546  0.969010
  19068.394  19068.390  0.500  1.835190  9.361559  1.493947  0.912411
  19073.822  19073.810  0.500  1.895989  9.347518  1.403715  0.862034
  19079.429  19079.390  0.500  1.944799  9.335421  1.335114  0.828018
  19085.167  19085.150  0.500  1.946687  9.312018  1.329255  0.823817
  19091.037  19091.080  0.500  1.919848  9.294168  1.362797  0.845675
  19097.183  19097.180  0.500  1.886407  9.284823  1.407724  0.872208
  19103.492  19103.450  0.500  1.862626  9.271774  1.439577  0.887238
  19109.919  19109.890  0.500  1.846143  9.285522  1.465671  0.902659
  19116.526  19116.500  0.500  1.831111  9.256865  1.483278  0.920844
  19123.330  19123.290  0.500  1.815219  9.250310  1.505971  0.942645
  19130.283  19130.250  0.500  1.804699  9.236170  1.519571  0.954108
  19137.371  19137.370  0.500  1.805212  9.212861  1.514959  0.950002
  19144.673  19144.670  0.500  1.806691  9.188963  1.508797  0.943435
  19152.205  19152.150  0.500  1.803788  9.172251  1.510430  0.944359
  19159.809  19159.790  0.500  1.799916  9.155128  1.513460  0.941199
  19167.644  19167.600  0.500  1.800651  9.133421  1.508761  0.933341
  19175.598  19175.590  0.500  1.799431  9.110817  1.506865  0.940622
  19183.737  19183.750  0.500  1.791981  9.073726  1.511953  0.956894
  19192.126  19192.070  0.500  1.782193  9.076733  1.527331  0.970054
  19200.586  19200.570  0.500  1.769170  9.045543  1.542033  0.977628
  19209.249  19209.250  0.500  1.758140  9.023893  1.555404  0.982550
  19218.130  19218.090  0.500  1.753466  8.999726  1.558507  0.978469
  19227.149  19227.100  0.500  1.755860  8.976536  1.550774  0.970427
  19236.339  19236.290  0.500  1.760659  8.958057  1.540173  0.964720
  19245.668  19245.650  0.500  1.760458  8.927429  1.535215  0.965979
  19255.218  19255.170  0.500  1.753255  8.905826  1.542572  0.978617
  19264.907  19264.870  0.500  1.745503  8.883607  1.550697  0.988039
  19274.753  19274.750  0.500  1.743029  8.853006  1.549184  0.986128
  19284.806  19284.790  0.500  1.744503  8.827831  1.542503  0.977615
  19295.032  19295.000  0.500  1.742837  8.804248  1.540947  0.973532
  19305.416  19305.390  0.500  1.734811  8.775222  1.548244  0.977897
  19315.992  19315.950  0.500  1.724098  8.749138  1.560267  0.988720
  19326.711  19326.680  0.500  1.715534  8.706673  1.566049  0.994194
  19337.606  19337.580  0.500  1.711272  8.698318  1.571228  1.001194
  19348.726  19348.650  0.500  1.711749  8.664147  1.564309  0.998540
  19359.909  19359.890  0.500  1.710231  8.641455  1.562582  0.998339
  19371.386  19371.310  0.500  1.705234  8.610846  1.564849  0.998651
  19382.925  19382.890  0.500  1.697363  8.579753  1.571519  1.003574
  19394.726  19394.650  0.500  1.691004  8.551837  1.576398  1.006225
  19406.541  19406.580  0.500  1.688313  8.520191  1.574797  1.005043
  19418.752  19418.680  0.500  1.687979  8.486465  1.569087  1.003066
  19430.928  19430.950  0.500  1.684459  8.455676  1.568907  1.004674
  19443.402  19443.390  0.500  1.678821  8.433939  1.573721  1.010145
  19456.041  19456.010  0.500  1.670690  8.394931  1.579231  1.014017
  19468.830  19468.790  0.500  1.663856  8.269527  1.566308  1.006569
  19481.820  19481.750  0.500  1.660098  8.329575  1.583621  1.018270
  19494.977  19494.880  0.500  1.658049  8.302051  1.581627  1.017321
  19508.202  19508.180  0.500  1.654429  8.263112  1.579917  1.017276
  19521.679  19521.650  0.500  1.648662  8.238863  1.584391  1.019638
  19535.359  19535.300  0.500  1.642026  8.199057  1.587235  1.022683
  19549.176  19549.110  0.500  1.637262  8.162986  1.587797  1.026331
  19563.131  19563.100  0.500  1.634681  8.128836  1.585241  1.025874
  19577.307  19577.260  0.500  1.631498  8.093001  1.583285  1.025827
  19591.673  19591.590  0.500  1.626668  8.059018  1.584271  1.026881
  19606.161  19606.090  0.500  1.619995  7.983356  1.579904  1.024355
  19620.839  19620.760  0.500  1.612591  7.991907  1.593350  1.032794
  19635.709  19635.600  0.500  1.607004  7.937774  1.591424  1.033090
  19650.687  19650.620  0.500  1.602658  7.908892  1.592539  1.035270
  19665.823  19665.800  0.500  1.598373  7.867752  1.591058  1.036128
  19681.204  19681.160  0.500  1.592613  7.834829  1.593552  1.039030
  19696.694  19696.690  0.500  1.586915  7.805775  1.596716  1.042390
  19712.431  19712.390  0.500  1.580121  7.764495  1.599098  1.044647
  19728.296  19728.260  0.500  1.575214  7.723748  1.598533  1.044984
  19744.357  19744.310  0.500  1.571181  7.596112  1.578469  1.033348
  19760.530  19760.520  0.500  1.565580  7.650163  1.598629  1.046736
  19776.902  19776.910  0.500  1.560747  7.610747  1.598099  1.047654
  19793.490  19793.470  0.500  1.555017  7.571617  1.599019  1.049949
  19810.245  19810.200  0.500  1.548488  7.551721  1.605262  1.055459
  19827.131  19827.100  0.500  1.542322  7.516518  1.607663  1.057867
  19838.549  19838.460  0.500  1.539098  7.483753  1.605823  1.058068