File: xdidata/Gd/Gd-L1-GadoliniumOxide.xdi
# XDI/1.0 BlueSky/1.10.0 BMM/2023-1.0-py310-tiled
# Beamline.name: BMM (06BM) -- Beamline for Materials Measurement (NIST)
# Beamline.xray_source: NSLS-II three-pole wiggler
# Beamline.collimation: paraboloid mirror, 5 nm Rh on 30 nm Pt
# Beamline.focusing: not in use
# Beamline.harmonic_rejection: flat mirror, Pt stripe, pitch = 7.0 mrad relative to beam
# Beamline.software: Bluesky 1.10.0, Ophyd 1.7.0, DataBroker 2.0.0b13, Python 3.10.8, 2023-1.0-py310-tiled
# Detector.I0: 10 cm N2
# Detector.I1: 25 cm N2
# Detector.I2: 25 cm N2
# Element.symbol: Gd
# Element.edge: L1
# Element.reference: Gd
# Element.reference_material: Gd2O3
# Facility.name: NSLS-II
# Facility.energy: 3.0
# Facility.current: 400.6
# Facility.mode: top-off
# Facility.GUP: 301027
# Facility.SAF: 310583
# Facility.cycle: 2023-2
# Mono.name: Si(111)
# Mono.d_spacing: 3.13519
# Mono.encoder_resolution: 0.0000050 deg/ct
# Mono.angle_offset: 16.0754 deg
# Mono.scan_mode: pseudo channel cut
# Mono.scan_type: step
# Mono.direction: forward in energy
# Sample.name: Gd2O3
# Sample.prep: PEG pellet
# Sample.x: 109.138 mm
# Sample.y: 153.150 mm
# Sample.SDD_position: 205.000 mm
# Scan.experimenters: Bruce Ravel
# Scan.edge_energy: 8375.6
# Scan.start_time: 2023-05-28T15:16:49
# Scan.end_time: 2023-05-28T15:24:59
# Scan.transient_id: 78791
# Scan.uid: bb3ec8ad-72f4-41bc-ab94-efd46cfe316d
# Scan.plot_hint: ln(It/Ir)  --  ln($6/$7)
# Column.1: energy eV
# Column.2: requested_energy eV
# Column.3: measurement_time seconds
# Column.4: xmu
# Column.5: I0 nA
# Column.6: It nA
# Column.7: Ir nA
# ///////////
# sample courtesy Martin Stennett, University of Sheffield
# -----------
# energy  requested_energy  measurement_time  xmu  I0  It  Ir
  8175.604  8175.600  0.500  1.551149  134.232  167.657  35.5439
  8205.644  8205.600  0.500  1.535784  133.835  167.971  36.1621
  8235.641  8235.600  0.500  1.521056  133.373  168.2  36.7485
  8265.626  8265.600  0.500  1.505957  132.956  168.493  37.3726
  8295.612  8295.600  0.500  1.492122  132.487  168.704  37.9406
  8325.609  8325.600  0.500  1.477973  132.101  168.945  38.5363
  8347.594  8347.600  0.500  1.467698  131.413  168.681  38.8735
  8353.589  8353.600  0.500  1.465078  130.989  168.261  38.8783
  8359.590  8359.600  0.500  1.462939  130.942  168.385  38.9903
  8365.587  8365.600  0.500  1.461185  130.889  168.469  39.0782
  8366.473  8366.500  0.500  1.460868  130.884  168.503  39.0986
  8367.379  8367.400  0.500  1.460564  130.845  168.428  39.0931
  8368.277  8368.300  0.500  1.460273  130.832  168.477  39.1158
  8369.184  8369.200  0.500  1.460047  130.831  168.473  39.1236
  8370.092  8370.100  0.500  1.459910  130.811  168.468  39.1279
  8370.990  8371.000  0.500  1.459865  130.815  168.456  39.1268
  8371.886  8371.900  0.500  1.459833  130.763  168.413  39.118
  8372.787  8372.800  0.500  1.459949  130.754  168.464  39.1255
  8373.699  8373.700  0.500  1.460172  130.74  168.486  39.1219
  8374.601  8374.600  0.500  1.460431  130.717  168.454  39.1043
  8375.497  8375.500  0.500  1.460976  130.68  168.457  39.0838
  8376.388  8376.400  0.500  1.461865  130.665  168.458  39.0491
  8377.291  8377.300  0.500  1.463387  130.668  168.492  38.9976
  8378.200  8378.200  0.500  1.465600  130.631  168.445  38.9006
  8379.100  8379.100  0.500  1.467631  130.627  168.454  38.8238
  8379.988  8380.000  0.500  1.469507  130.621  168.507  38.7632
  8380.895  8380.900  0.500  1.471345  130.594  168.434  38.6752
  8381.802  8381.800  0.500  1.473255  130.58  168.445  38.6039
  8382.697  8382.700  0.500  1.475212  130.538  168.409  38.5203
  8383.610  8383.600  0.500  1.477081  130.505  168.41  38.4486
  8384.493  8384.500  0.500  1.479019  130.502  168.418  38.376
  8385.392  8385.400  0.500  1.481147  130.459  168.372  38.2839
  8386.309  8386.300  0.500  1.483777  130.422  168.375  38.1841
  8387.199  8387.200  0.500  1.486975  130.397  168.378  38.0628
  8388.092  8388.100  0.500  1.490507  130.386  168.383  37.9296
  8389.006  8389.000  0.500  1.494468  130.323  168.296  37.7601
  8389.903  8389.900  0.500  1.498572  130.291  168.292  37.6048
  8390.797  8390.800  0.500  1.501720  130.266  168.332  37.4953
  8391.697  8391.700  0.500  1.503591  130.23  168.232  37.4031
  8392.594  8392.600  0.500  1.504180  130.257  168.325  37.4017
  8393.500  8393.500  0.500  1.504020  130.617  168.827  37.5192
  8394.404  8394.400  0.500  1.503396  130.609  168.843  37.5461
  8395.305  8395.300  0.500  1.502667  130.591  168.839  37.5727
  8396.194  8396.200  0.500  1.502179  130.557  168.799  37.5821
  8397.104  8397.100  0.500  1.501873  130.52  168.762  37.5855
  8398.005  8398.000  0.500  1.501856  130.501  168.802  37.595
  8398.907  8398.900  0.500  1.501682  130.477  168.761  37.5923
  8399.797  8399.800  0.500  1.501591  130.457  168.778  37.5996
  8400.596  8400.600  0.500  1.501389  130.444  168.783  37.6084
  8403.618  8403.610  0.500  1.499401  130.401  168.794  37.6856
  8406.821  8406.800  0.500  1.493944  130.346  168.801  37.8934
  8410.184  8410.160  0.500  1.486954  130.279  168.791  38.157
  8413.873  8413.680  0.500  1.481018  130.174  168.736  38.3716
  8417.379  8417.380  0.500  1.477684  130.082  168.719  38.4958
  8421.238  8421.250  0.500  1.475652  130.014  168.72  38.5743
  8425.289  8425.300  0.500  1.474575  129.976  168.791  38.6323
  8429.500  8429.510  0.500  1.473832  129.893  168.776  38.6574
  8433.880  8433.890  0.500  1.473721  129.814  168.799  38.6671
  8438.448  8438.450  0.500  1.474001  129.731  168.811  38.659
  8443.180  8443.180  0.500  1.474518  129.651  168.813  38.6394
  8448.080  8448.080  0.500  1.473208  129.572  168.817  38.691
  8453.148  8453.150  0.500  1.469883  129.472  168.791  38.814
  8458.385  8458.390  0.500  1.464945  129.367  168.8  39.0082
  8463.808  8463.810  0.500  1.461323  129.287  168.834  39.1575
  8469.382  8469.390  0.500  1.458940  129.164  168.815  39.2464
  8475.145  8475.150  0.500  1.456565  129.047  168.799  39.3362
  8481.083  8481.080  0.500  1.453441  128.955  168.777  39.4542
  8487.194  8487.180  0.500  1.449624  128.865  168.805  39.6116
  8493.456  8493.450  0.500  1.445985  128.715  168.785  39.7513
  8499.889  8499.890  0.500  1.443230  128.627  168.874  39.8819
  8506.503  8506.500  0.500  1.441302  128.494  168.799  39.9411
  8513.317  8513.290  0.500  1.439579  128.35  168.809  40.0123
  8520.255  8520.250  0.500  1.436406  128.224  168.791  40.1353
  8527.385  8527.370  0.500  1.433319  127.862  168.472  40.1832
  8534.681  8534.670  0.500  1.429346  127.262  167.845  40.193
  8542.156  8542.150  0.500  1.424986  127.689  168.572  40.5437
  8549.801  8549.790  0.500  1.421715  127.592  168.638  40.6922
  8557.611  8557.600  0.500  1.419031  127.435  168.621  40.7977
  8565.603  8565.590  0.500  1.415648  127.265  168.616  40.9347
  8573.755  8573.750  0.500  1.411669  127.116  168.564  41.0852
  8582.091  8582.070  0.500  1.407377  126.84  168.387  41.2185
  8590.596  8590.570  0.500  1.403269  125.67  167.047  41.0588
  8599.264  8599.250  0.500  1.400023  126.503  168.321  41.5064
  8608.103  8608.090  0.500  1.396742  125.992  167.849  41.526
  8617.114  8617.100  0.500  1.392582  115.819  154.476  38.3768
  8626.301  8626.290  0.500  1.388966  127.126  169.776  42.3307
  8635.655  8635.650  0.500  1.384728  126.829  169.64  42.4766
  8645.178  8645.170  0.500  1.380717  121.32  162.43  40.8347
  8654.887  8654.870  0.500  1.376112  126.601  169.758  42.8738
  8664.767  8664.750  0.500  1.372046  126.354  169.624  43.0145
  8674.808  8674.790  0.500  1.367806  126.099  169.505  43.1671
  8685.017  8685.000  0.500  1.363188  125.866  169.425  43.3463
  8695.406  8695.390  0.500  1.358561  125.636  169.338  43.5251
  8705.957  8705.950  0.500  1.354362  124.424  167.925  43.3434
  8716.692  8716.680  0.500  1.350128  125.136  169.125  43.8385
  8727.591  8727.580  0.500  1.345703  124.999  169.159  44.0417
  8738.666  8738.650  0.500  1.341354  124.751  169.091  44.2157
  8749.908  8749.890  0.500  1.336563  124.526  169.025  44.4108
  8761.332  8761.310  0.500  1.331662  124.294  168.956  44.6108
  8772.916  8772.890  0.500  1.326727  124.038  168.82  44.7954
  8784.663  8784.650  0.500  1.321791  123.765  168.693  44.9831
  8796.607  8796.580  0.500  1.316980  123.452  168.562  45.1651
  8808.697  8808.680  0.500  1.312335  123.208  168.438  45.342
  8820.968  8820.950  0.500  1.307731  122.963  168.352  45.5279
  8833.409  8833.390  0.500  1.302666  122.688  168.266  45.7357
  8846.034  8846.010  0.500  1.297619  122.407  168.133  45.9309
  8858.814  8858.790  0.500  1.292404  122.113  167.95  46.1207
  8871.774  8871.750  0.500  1.287215  121.836  167.874  46.3397
  8884.889  8884.880  0.500  1.282167  121.517  167.692  46.5237
  8898.201  8898.180  0.500  1.277238  121.203  167.508  46.7023
  8911.676  8911.650  0.500  1.272061  119.277  165.124  46.2767
  8925.314  8925.300  0.500  1.266423  120.614  167.228  47.1311
  8939.131  8939.110  0.500  1.261095  120.352  167.142  47.3586
  8953.121  8953.100  0.500  1.255897  119.768  166.604  47.4523
  8967.283  8967.260  0.500  1.250741  119.644  166.693  47.7228
  8981.624  8981.590  0.500  1.245385  119.292  166.476  47.9169
  8996.106  8996.090  0.500  1.240113  118.846  166.117  48.0663
  9010.779  9010.760  0.500  1.234236  117.589  164.631  47.9171
  9025.613  9025.600  0.500  1.228700  118.343  165.976  48.5768
  9040.642  9040.620  0.500  1.223251  117.906  165.636  48.7421
  9055.818  9055.800  0.500  1.217845  117.557  165.431  48.9457
  9071.180  9071.160  0.500  1.212388  117.182  165.154  49.1309
  9086.703  9086.690  0.500  1.206869  116.769  164.869  49.3176
  9102.409  9102.390  0.500  1.201108  116.404  164.645  49.5352
  9118.260  9118.260  0.500  1.195408  115.999  164.321  49.7202
  9134.326  9134.310  0.500  1.189714  115.598  164.039  49.9185
  9150.530  9150.520  0.500  1.184189  115.243  163.812  50.1257
  9166.919  9166.910  0.500  1.178544  114.656  163.254  50.2375
  9183.474  9183.470  0.500  1.172918  112.634  160.648  49.7146
  9200.226  9200.200  0.500  1.167031  114.076  163.006  50.7421
  9217.113  9217.100  0.500  1.161215  113.639  162.675  50.9345
  9228.487  9228.460  0.500  1.157319  113.35  162.44  51.0593