File: xdidata/Gd/Gd-L3-Gd2TiO5.xdi
# XDI/1.0 BlueSky/1.10.0 BMM/2023-1.0-py310-tiled
# Beamline.name: BMM (06BM) -- Beamline for Materials Measurement (NIST)
# Beamline.xray_source: NSLS-II three-pole wiggler
# Beamline.collimation: paraboloid mirror, 5 nm Rh on 30 nm Pt
# Beamline.focusing: not in use
# Beamline.harmonic_rejection: flat mirror, Si stripe, pitch = 7.0 mrad relative to beam
# Beamline.software: Bluesky 1.10.0, Ophyd 1.7.0, DataBroker 2.0.0b13, Python 3.10.8, 2023-1.0-py310-tiled
# Detector.I0: 10 cm N2
# Detector.I1: 25 cm N2
# Detector.I2: 25 cm N2
# Element.symbol: Gd
# Element.edge: L3
# Element.reference: Gd
# Element.reference_material: Gd2O3
# Facility.name: NSLS-II
# Facility.energy: 3.0
# Facility.current: 399.0
# Facility.mode: top-off
# Facility.GUP: 123456
# Facility.SAF: 301027
# Facility.cycle: 2023-2
# Mono.name: Si(111)
# Mono.d_spacing: 3.13519
# Mono.encoder_resolution: 0.0000050 deg/ct
# Mono.angle_offset: 16.0754 deg
# Mono.scan_mode: pseudo channel cut
# Mono.scan_type: step
# Mono.direction: forward in energy
# Sample.name: Gd2TiO5
# Sample.prep: Powder in PEG pellet
# Sample.x: 149.848 mm
# Sample.y: 114.690 mm
# Sample.SDD_position: 205.000 mm
# Scan.experimenters: Bruce Ravel
# Scan.edge_energy: 7242.8
# Scan.start_time: 2023-05-08T18:10:48
# Scan.end_time: 2023-05-08T18:16:48
# Scan.transient_id: 75478
# Scan.uid: d40312a8-d397-45f7-b91b-5e2d895c82bb
# Scan.plot_hint: ln(I0/It)  --  ln($5/$6)
# Column.1: energy eV
# Column.2: requested_energy eV
# Column.3: measurement_time seconds
# Column.4: xmu
# Column.5: I0 nA
# Column.6: It nA
# Column.7: Ir nA
# ///////////
# sample courtesy Martin Stennett, University of Sheffield
# -----------
# energy  requested_energy  measurement_time  xmu  I0  It  Ir
  7042.807  7042.800  0.500  1.359467  150.315  38.6005  7.465898
  7062.820  7062.800  0.500  1.343271  149.069  38.9055  7.629841
  7082.822  7082.800  0.500  1.326782  149.336  39.6233  7.876445
  7102.825  7102.800  0.500  1.310573  150.455  40.5727  8.173838
  7122.819  7122.800  0.500  1.294336  150.129  41.1473  8.398879
  7142.807  7142.800  0.500  1.278302  149.793  41.7187  8.626890
  7162.810  7162.800  0.500  1.262414  149.816  42.3935  8.880206
  7182.812  7182.800  0.500  1.247280  149.593  42.9758  9.114434
  7202.773  7202.800  0.500  1.233691  149.293  43.4766  9.330043
  7214.782  7214.800  0.500  1.227198  149.097  43.7021  9.430194
  7218.783  7218.800  0.500  1.226216  149.01  43.7198  9.449265
  7222.791  7222.800  0.500  1.225731  148.925  43.716  9.455018
  7226.786  7226.800  0.500  1.227304  148.582  43.5466  9.415652
  7230.788  7230.800  0.500  1.231981  148.921  43.4424  9.370661
  7233.279  7233.300  0.500  1.238598  148.861  43.1386  9.269556
  7234.281  7234.300  0.500  1.242821  148.819  42.9444  9.205570
  7235.283  7235.300  0.500  1.248050  148.79  42.7122  9.127030
  7236.283  7236.300  0.500  1.254635  148.762  42.424  9.026322
  7237.284  7237.300  0.500  1.264009  148.75  42.0246  8.889131
  7238.282  7238.300  0.500  1.276697  148.719  41.4862  8.703831
  7239.292  7239.300  0.500  1.296028  148.704  40.6878  8.429749
  7240.289  7240.300  0.500  1.322862  148.686  39.6058  8.062062
  7241.287  7241.300  0.500  1.356668  148.632  38.2752  7.616416
  7242.286  7242.300  0.500  1.397152  148.65  36.7612  7.112458
  7243.291  7243.300  0.500  1.464700  148.591  34.3464  6.331542
  7244.298  7244.300  0.500  1.578887  147.381  30.3905  5.157929
  7245.287  7245.300  0.500  1.740409  146.18  25.6471  3.874106
  7246.293  7246.300  0.500  1.897296  148.336  22.2465  3.028593
  7247.298  7247.300  0.500  1.995882  148.475  20.1769  2.584963
  7248.293  7248.300  0.500  2.043920  148.481  19.2313  2.368810
  7249.290  7249.300  0.500  2.044864  148.463  19.2107  2.355689
  7250.299  7250.300  0.500  1.984965  148.434  20.3926  2.620162
  7251.301  7251.300  0.500  1.881804  148.392  22.6023  3.132763
  7252.297  7252.300  0.500  1.772959  148.301  25.1859  3.767787
  7253.296  7253.300  0.500  1.686813  148.05  27.4053  4.349312
  7254.299  7254.300  0.500  1.624100  145.94  28.7632  4.762987
  7255.302  7255.300  0.500  1.579609  148.228  30.5432  5.204788
  7256.300  7256.300  0.500  1.549628  148.51  31.5327  5.477812
  7257.297  7257.300  0.500  1.528897  148.437  32.1774  5.663687
  7258.306  7258.300  0.500  1.515248  148.375  32.6059  5.792450
  7259.304  7259.300  0.500  1.506002  148.273  32.8863  5.885292
  7260.300  7260.300  0.500  1.501081  148.145  33.0199  5.936296
  7261.300  7261.300  0.500  1.500318  147.895  32.9894  5.942927
  7262.301  7262.300  0.500  1.502877  147.288  32.7699  5.901983
  7263.300  7263.300  0.500  1.507435  144.511  32.006  5.757481
  7264.295  7264.300  0.500  1.511621  123.179  27.1674  4.881872
  7265.299  7265.300  0.500  1.515353  138.474  30.4269  5.459245
  7266.306  7266.300  0.500  1.515419  148.159  32.553  5.846421
  7267.304  7267.300  0.500  1.513960  148.591  32.6955  5.884473
  7268.794  7268.790  0.500  1.508575  148.69  32.894  5.948544
  7270.816  7270.810  0.500  1.502012  148.674  33.1071  6.013140
  7272.927  7272.920  0.500  1.505414  148.443  32.9433  5.969454
  7275.105  7275.100  0.500  1.521003  148.534  32.4535  5.831972
  7277.374  7277.360  0.500  1.543360  148.8  31.7929  5.646433
  7279.698  7279.690  0.500  1.567091  148.787  31.0447  5.433087
  7282.110  7282.100  0.500  1.588447  148.744  30.3799  5.247589
  7284.595  7284.580  0.500  1.590889  146.043  29.7554  5.120942
  7287.150  7287.140  0.500  1.572077  148.658  30.8634  5.347212
  7289.788  7289.780  0.500  1.546830  148.708  31.6632  5.550491
  7292.516  7292.500  0.500  1.527645  148.716  32.2781  5.722404
  7295.300  7295.290  0.500  1.516143  148.723  32.6533  5.837490
  7298.159  7298.150  0.500  1.509263  148.678  32.8688  5.916331
  7301.106  7301.090  0.500  1.504981  147.147  32.6699  5.914741
  7304.127  7304.110  0.500  1.501435  148.777  33.149  6.029494
  7307.226  7307.210  0.500  1.497970  148.753  33.2588  6.074972
  7310.390  7310.380  0.500  1.496537  148.721  33.2993  6.099926
  7313.641  7313.630  0.500  1.497588  148.687  33.2567  6.100298
  7316.961  7316.950  0.500  1.499029  148.666  33.204  6.083660
  7320.362  7320.350  0.500  1.500814  148.647  33.1406  6.055452
  7323.843  7323.830  0.500  1.504117  148.597  33.0203  6.016494
  7327.391  7327.380  0.500  1.508778  148.554  32.8572  5.975795
  7331.021  7331.010  0.500  1.511218  148.496  32.7644  5.961582
  7334.723  7334.710  0.500  1.509673  148.487  32.8129  5.983964
  7338.502  7338.490  0.500  1.504223  147.383  32.747  5.990951
  7342.363  7342.350  0.500  1.498111  148.245  33.1405  6.079317
  7346.302  7346.280  0.500  1.493308  148.252  33.3015  6.127376
  7350.280  7350.290  0.500  1.489180  148.209  33.4296  6.166896
  7354.370  7354.380  0.500  1.484783  148.158  33.5654  6.205065
  7358.545  7358.540  0.500  1.479213  148.107  33.7412  6.250125
  7362.793  7362.780  0.500  1.472594  148.039  33.9497  6.318216
  7367.112  7367.090  0.500  1.466180  147.956  34.149  6.395882
  7371.492  7371.480  0.500  1.461060  147.906  34.3129  6.470614
  7375.961  7375.950  0.500  1.457383  147.824  34.4201  6.524668
  7380.500  7380.490  0.500  1.456137  147.749  34.4454  6.539682
  7385.121  7385.110  0.500  1.457274  147.665  34.3868  6.529923
  7389.814  7389.800  0.500  1.458904  147.623  34.3209  6.521219
  7394.580  7394.570  0.500  1.459430  147.658  34.3111  6.514865
  7399.431  7399.420  0.500  1.456171  147.597  34.4088  6.531131
  7404.364  7404.350  0.500  1.451862  147.515  34.5382  6.560432
  7409.358  7409.350  0.500  1.447705  147.447  34.6663  6.608363
  7414.433  7414.420  0.500  1.442451  147.353  34.8266  6.680337
  7419.577  7419.570  0.500  1.437347  147.265  34.9839  6.749671
  7424.807  7424.800  0.500  1.433173  147.158  35.1047  6.801314
  7430.120  7430.110  0.500  1.429251  147.043  35.2151  6.837296
  7435.496  7435.490  0.500  1.425124  146.928  35.333  6.874013
  7440.962  7440.950  0.500  1.420444  146.781  35.4633  6.915630
  7446.488  7446.480  0.500  1.415773  144.129  34.9856  6.839673
  7452.091  7452.090  0.500  1.410540  146.44  35.733  7.013812
  7457.783  7457.770  0.500  1.405944  146.432  35.8957  7.083241
  7463.549  7463.540  0.500  1.403309  146.497  36.0063  7.140052
  7469.381  7469.370  0.500  1.401217  146.509  36.0847  7.181580
  7475.296  7475.290  0.500  1.398761  146.331  36.1296  7.209649
  7481.287  7481.280  0.500  1.395906  146.206  36.2019  7.240281
  7487.357  7487.350  0.500  1.391792  146.071  36.3176  7.280109
  7493.508  7493.490  0.500  1.386087  145.938  36.4921  7.333290
  7499.718  7499.710  0.500  1.379766  145.83  36.6964  7.397752
  7506.014  7506.000  0.500  1.374690  145.687  36.8469  7.457133
  7512.384  7512.370  0.500  1.370405  145.552  36.9709  7.512855
  7518.829  7518.820  0.500  1.366666  145.44  37.0808  7.571399
  7525.368  7525.350  0.500  1.363170  145.284  37.1706  7.625911
  7531.960  7531.950  0.500  1.359320  145.145  37.2784  7.679092
  7538.642  7538.620  0.500  1.354520  144.999  37.42  7.735766
  7545.386  7545.370  0.500  1.348332  144.857  37.6155  7.797667
  7552.216  7552.200  0.500  1.342237  144.698  37.8039  7.864080
  7559.127  7559.110  0.500  1.336608  144.541  37.9761  7.935476
  7566.110  7566.090  0.500  1.331693  144.373  38.1187  8.003061
  7573.169  7573.150  0.500  1.327402  144.215  38.2407  8.063349
  7580.313  7580.280  0.500  1.323809  144.023  38.3272  8.112166
  7587.506  7587.490  0.500  1.320325  143.799  38.4014  8.159757
  7594.791  7594.780  0.500  1.316218  143.522  38.4851  8.211176
  7602.163  7602.140  0.500  1.311229  141.709  38.1891  8.179632
  7609.591  7609.580  0.500  1.305289  142.497  38.6302  8.303441
  7617.106  7617.090  0.500  1.299252  142.423  38.844  8.381785
  7624.693  7624.680  0.500  1.293134  142.657  39.1464  8.480678
  7632.368  7632.350  0.500  1.287484  142.575  39.3455  8.562734
  7640.108  7640.090  0.500  1.282196  142.374  39.4985  8.636711
  7647.943  7647.910  0.500  1.277535  142.188  39.631  8.706080
  7655.831  7655.810  0.500  1.272969  141.979  39.754  8.771773
  7663.804  7663.780  0.500  1.268118  141.76  39.8858  8.844406
  7671.844  7671.830  0.500  1.262480  141.521  40.0437  8.922487
  7679.945  7679.950  0.500  1.256395  141.273  40.2173  8.997517
  7688.174  7688.150  0.500  1.250462  138.076  39.5413  8.880196
  7696.414  7696.430  0.500  1.245146  140.847  40.5496  9.142113
  7704.799  7704.780  0.500  1.239500  140.397  40.649  9.208898
  7713.226  7713.210  0.500  1.234086  140.332  40.8507  9.297791
  7721.720  7721.710  0.500  1.229234  139.237  40.729  9.314648
  7730.297  7730.290  0.500  1.223882  139.78  41.1075  9.446092
  7738.958  7738.950  0.500  1.218148  139.23  41.1811  9.508905
  7747.708  7747.690  0.500  1.212536  139.298  41.433  9.615984
  7756.512  7756.500  0.500  1.206022  138.955  41.6011  9.701097
  7765.396  7765.380  0.500  1.199870  138.659  41.7688  9.781736
  7774.358  7774.340  0.500  1.193789  138.32  41.9207  9.854949
  7783.400  7783.380  0.500  1.188067  138.007  42.066  9.934033
  7787.952  7787.930  0.500  1.184918  137.823  42.1424  9.974509