File: xdidata/Gd/Gd-L1-Gd2Ti2O7.xdi
# XDI/1.0 BlueSky/1.10.0 BMM/2023-1.0-py310-tiled
# Beamline.name: BMM (06BM) -- Beamline for Materials Measurement (NIST)
# Beamline.xray_source: NSLS-II three-pole wiggler
# Beamline.collimation: paraboloid mirror, 5 nm Rh on 30 nm Pt
# Beamline.focusing: not in use
# Beamline.harmonic_rejection: flat mirror, Pt stripe, pitch = 7.0 mrad relative to beam
# Beamline.software: Bluesky 1.10.0, Ophyd 1.7.0, DataBroker 2.0.0b13, Python 3.10.8, 2023-1.0-py310-tiled
# Detector.I0: 10 cm N2
# Detector.I1: 25 cm N2
# Detector.I2: 25 cm N2
# Element.symbol: Gd
# Element.edge: L1
# Element.reference: Gd
# Element.reference_material: Gd2O3
# Facility.name: NSLS-II
# Facility.energy: 3.0
# Facility.current: 400.8
# Facility.mode: top-off
# Facility.GUP: 123456
# Facility.SAF: 301027
# Facility.cycle: 2023-2
# Mono.name: Si(111)
# Mono.d_spacing: 3.13519
# Mono.encoder_resolution: 0.0000050 deg/ct
# Mono.angle_offset: 16.0754 deg
# Mono.scan_mode: pseudo channel cut
# Mono.scan_type: step
# Mono.direction: forward in energy
# Sample.name: Gd2Ti2O7
# Sample.prep: Powder in PEG pellet
# Sample.x: 149.848 mm
# Sample.y: 114.690 mm
# Sample.SDD_position: 205.000 mm
# Scan.experimenters: Bruce Ravel
# Scan.edge_energy: 8375.6
# Scan.start_time: 2023-05-08T21:51:02
# Scan.end_time: 2023-05-08T21:56:53
# Scan.transient_id: 75647
# Scan.uid: 7a7060ae-483c-4760-9457-d592e1e9397f
# Scan.plot_hint: ln(I0/It)  --  ln($5/$6)
# Column.1: energy eV
# Column.2: requested_energy eV
# Column.3: measurement_time seconds
# Column.4: xmu
# Column.5: I0 nA
# Column.6: It nA
# Column.7: Ir nA
# ///////////
# sample courtesy Martin Stennett, University of Sheffield
# -----------
# energy  requested_energy  measurement_time  xmu  I0  It  Ir
  8175.604  8175.600  0.500  1.137634  135.811  43.5379  11.1636
  8195.634  8195.600  0.500  1.128371  135.472  43.8333  11.3344
  8215.647  8215.600  0.500  1.117337  135.102  44.1987  11.5414
  8235.641  8235.600  0.500  1.108471  134.706  44.4616  11.7017
  8255.646  8255.600  0.500  1.099018  134.343  44.7627  11.8861
  8275.619  8275.600  0.500  1.088501  133.98  45.1139  12.0768
  8295.618  8295.600  0.500  1.079382  133.573  45.3887  12.2496
  8315.616  8315.600  0.500  1.070402  133.189  45.6667  12.4201
  8335.621  8335.600  0.500  1.061179  132.585  45.8808  12.5858
  8347.579  8347.600  0.500  1.055530  132.188  46.0023  12.6774
  8351.581  8351.600  0.500  1.053750  131.871  45.9739  12.689
  8355.585  8355.600  0.500  1.052066  131.737  46.0048  12.7152
  8359.901  8359.600  0.500  1.050331  131.644  46.052  12.7409
  8363.586  8363.600  0.500  1.049216  131.619  46.0947  12.7639
  8366.080  8366.100  0.500  1.048631  131.581  46.1082  12.7773
  8367.082  8367.100  0.500  1.048137  131.561  46.1241  12.7853
  8368.082  8368.100  0.500  1.048008  131.537  46.1214  12.788
  8369.079  8369.100  0.500  1.047915  131.521  46.12  12.7881
  8370.077  8370.100  0.500  1.047617  131.503  46.1277  12.7915
  8371.083  8371.100  0.500  1.047804  131.486  46.1131  12.788
  8372.081  8372.100  0.500  1.047555  131.467  46.1179  12.7866
  8373.085  8373.100  0.500  1.047567  131.439  46.1074  12.7794
  8374.083  8374.100  0.500  1.047727  131.415  46.0917  12.7727
  8375.082  8375.100  0.500  1.048203  131.396  46.0631  12.7547
  8376.084  8376.100  0.500  1.048835  131.367  46.0239  12.7305
  8377.098  8377.100  0.500  1.050163  131.355  45.9587  12.6883
  8378.097  8378.100  0.500  1.052118  131.339  45.8632  12.6293
  8379.097  8379.100  0.500  1.054081  131.311  45.7635  12.5746
  8380.094  8380.100  0.500  1.056046  131.283  45.6639  12.5199
  8381.085  8381.100  0.500  1.058247  131.252  45.5528  12.4627
  8382.088  8382.100  0.500  1.060476  131.23  45.4439  12.4061
  8383.098  8383.100  0.500  1.062855  131.202  45.3259  12.3455
  8384.095  8384.100  0.500  1.065443  131.17  45.1979  12.2836
  8385.099  8385.100  0.500  1.067980  131.138  45.0724  12.2177
  8386.098  8386.100  0.500  1.071090  131.095  44.9178  12.1407
  8387.093  8387.100  0.500  1.074669  131.062  44.746  12.0485
  8388.095  8388.100  0.500  1.078501  131.015  44.5587  11.9478
  8389.103  8389.100  0.500  1.082925  130.984  44.3516  11.8373
  8390.099  8390.100  0.500  1.088013  130.968  44.1211  11.7281
  8391.096  8391.100  0.500  1.092309  130.93  43.9194  11.6449
  8392.092  8392.100  0.500  1.094709  130.906  43.8059  11.6018
  8393.095  8393.100  0.500  1.095752  130.876  43.7503  11.5885
  8394.099  8394.100  0.500  1.095086  130.852  43.7713  11.6026
  8395.099  8395.100  0.500  1.093136  130.827  43.8484  11.6295
  8396.103  8396.100  0.500  1.090900  130.795  43.9361  11.6597
  8397.101  8397.100  0.500  1.088686  130.777  44.0271  11.6852
  8398.096  8398.100  0.500  1.086194  130.726  44.12  11.7098
  8399.091  8399.100  0.500  1.083489  130.713  44.2351  11.7401
  8400.099  8400.100  0.500  1.081143  130.688  44.3305  11.7669
  8401.595  8401.590  0.500  1.077866  130.647  44.4618  11.8077
  8403.621  8403.610  0.500  1.075764  130.606  44.5417  11.8528
  8405.727  8405.720  0.500  1.075936  130.559  44.5179  11.8866
  8407.906  8407.900  0.500  1.075689  130.52  44.5154  11.938
  8410.166  8410.160  0.500  1.073448  130.457  44.594  12.0126
  8412.497  8412.490  0.500  1.069879  130.409  44.7368  12.0967
  8414.902  8414.900  0.500  1.066042  130.353  44.8895  12.1694
  8417.391  8417.380  0.500  1.062995  130.298  45.0074  12.2248
  8419.948  8419.940  0.500  1.060927  130.239  45.0801  12.2605
  8422.595  8422.580  0.500  1.060196  130.178  45.0922  12.2732
  8425.310  8425.300  0.500  1.060696  130.122  45.05  12.2669
  8428.095  8428.090  0.500  1.062015  130.062  44.9699  12.2498
  8430.960  8430.950  0.500  1.063577  129.995  44.8767  12.2241
  8433.898  8433.890  0.500  1.064491  129.924  44.8113  12.2042
  8436.921  8436.910  0.500  1.063277  129.871  44.8474  12.2111
  8440.012  8440.010  0.500  1.060783  129.788  44.9306  12.2264
  8443.183  8443.180  0.500  1.057872  129.713  45.0354  12.2483
  8446.445  8446.430  0.500  1.055607  129.628  45.108  12.2756
  8449.752  8449.750  0.500  1.053976  129.54  45.151  12.3028
  8453.154  8453.150  0.500  1.052682  129.464  45.183  12.3428
  8456.648  8456.630  0.500  1.051227  129.377  45.2182  12.3914
  8460.188  8460.180  0.500  1.049773  129.289  45.2535  12.4337
  8463.820  8463.810  0.500  1.048256  129.201  45.2912  12.4686
  8467.523  8467.510  0.500  1.046539  129.112  45.3377  12.5007
  8471.303  8471.290  0.500  1.044595  129.016  45.3921  12.5279
  8475.167  8475.150  0.500  1.042371  129.435  45.6412  12.6136
  8479.090  8479.080  0.500  1.040892  129.34  45.6752  12.6481
  8483.100  8483.090  0.500  1.038485  129.242  45.7504  12.6962
  8487.200  8487.180  0.500  1.036095  129.14  45.8237  12.7462
  8491.354  8491.340  0.500  1.034397  129.046  45.8681  12.7888
  8495.606  8495.580  0.500  1.032377  128.931  45.9202  12.8258
  8499.908  8499.890  0.500  1.030765  128.815  45.9527  12.8538
  8504.298  8504.280  0.500  1.029394  128.719  45.9815  12.8758
  8508.759  8508.750  0.500  1.027918  128.603  46.0079  12.8922
  8513.299  8513.290  0.500  1.025754  128.47  46.0597  12.9206
  8517.924  8517.910  0.500  1.023396  128.333  46.1194  12.9599
  8522.615  8522.600  0.500  1.021036  128.157  46.165  12.9977
  8527.382  8527.370  0.500  1.018824  127.586  46.0611  12.9914
  8532.233  8532.220  0.500  1.016194  123.623  44.7477  12.6477
  8537.174  8537.150  0.500  1.014376  127.878  46.3724  13.1442
  8542.168  8542.150  0.500  1.012253  127.799  46.4421  13.1965
  8547.237  8547.220  0.500  1.010248  127.672  46.4889  13.2384
  8552.382  8552.370  0.500  1.008425  127.543  46.527  13.2667
  8557.608  8557.600  0.500  1.006589  127.406  46.5622  13.2976
  8562.916  8562.910  0.500  1.004344  127.265  46.6154  13.3398
  8568.297  8568.290  0.500  1.001705  127.116  46.6837  13.3865
  8573.755  8573.750  0.500  0.999078  126.962  46.75  13.4383
  8579.289  8579.280  0.500  0.996575  126.776  46.7984  13.4858
  8584.907  8584.890  0.500  0.994355  126.559  46.8219  13.5271
  8590.590  8590.570  0.500  0.991375  125.518  46.5754  13.4868
  8596.353  8596.340  0.500  0.989037  125.629  46.7256  13.5574
  8602.187  8602.170  0.500  0.986798  125.898  46.931  13.6398
  8608.097  8608.090  0.500  0.984445  125.484  46.8865  13.6533
  8614.094  8614.080  0.500  0.982211  123.76  46.346  13.5257
  8620.161  8620.150  0.500  0.979566  126.283  47.4161  13.8673
  8626.298  8626.290  0.500  0.977084  126.487  47.6107  13.9584
  8632.520  8632.510  0.500  0.974250  126.055  47.5826  13.9835
  8638.819  8638.800  0.500  0.971275  125.524  47.5234  14.0018
  8645.191  8645.170  0.500  0.968292  122.913  46.6737  13.7855
  8651.641  8651.620  0.500  0.966094  125.364  47.7093  14.1274
  8658.158  8658.150  0.500  0.963581  125.211  47.7711  14.1827
  8664.770  8664.750  0.500  0.960932  125.045  47.8343  14.2334
  8671.440  8671.420  0.500  0.958032  124.874  47.9076  14.2881
  8678.195  8678.170  0.500  0.955185  124.689  47.9732  14.3453
  8685.017  8685.000  0.500  0.952299  124.501  48.0393  14.4044
  8691.927  8691.910  0.500  0.949290  124.283  48.0995  14.4614
  8698.917  8698.890  0.500  0.946264  124.009  48.139  14.5104
  8705.967  8705.950  0.500  0.943462  121.832  47.4264  14.3301
  8713.098  8713.080  0.500  0.940216  123.774  48.3393  14.6416
  8720.312  8720.290  0.500  0.937491  123.659  48.4259  14.7046
  8727.608  8727.580  0.500  0.934791  123.46  48.4787  14.7594
  8734.958  8734.940  0.500  0.931779  123.264  48.5478  14.8159
  8742.400  8742.380  0.500  0.929106  123.078  48.6045  14.8731
  8749.908  8749.890  0.500  0.925864  122.873  48.681  14.9405
  8757.502  8757.480  0.500  0.922599  122.682  48.7641  15.008
  8765.172  8765.150  0.500  0.919367  122.47  48.8374  15.075
  8772.906  8772.890  0.500  0.916168  122.242  48.9027  15.1376
  8780.730  8780.710  0.500  0.913126  122.057  48.9775  15.2046
  8788.627  8788.610  0.500  0.909881  121.825  49.0433  15.2683
  8796.597  8796.580  0.500  0.906740  121.594  49.1042  15.3298
  8804.651  8804.630  0.500  0.903565  121.388  49.1771  15.3943
  8812.773  8812.750  0.500  0.900465  121.177  49.244  15.4562
  8820.975  8820.950  0.500  0.897503  120.958  49.3007  15.5157
  8829.249  8829.230  0.500  0.894162  120.735  49.3745  15.5871
  8837.603  8837.580  0.500  0.890606  120.514  49.46  15.6599
  8846.030  8846.010  0.500  0.887296  120.288  49.5308  15.7287
  8854.532  8854.510  0.500  0.883956  120.052  49.5991  15.7976
  8863.111  8863.090  0.500  0.880517  119.807  49.6681  15.8674
  8871.774  8871.750  0.500  0.877347  119.572  49.7282  15.9368
  8880.510  8880.490  0.500  0.873956  119.319  49.7914  16.0034
  8889.314  8889.300  0.500  0.870662  119.078  49.8547  16.0676
  8898.201  8898.180  0.500  0.867319  118.815  49.9114  16.1318
  8907.157  8907.140  0.500  0.863938  118.509  49.9513  16.1946
  8916.203  8916.180  0.500  0.860236  118.237  50.0214  16.2665
  8920.756  8920.730  0.500  0.858530  118.221  50.1001  16.32