File: xdidata/Gd/Gd-L3-Gd2Ti2O7.xdi
# XDI/1.0 BlueSky/1.10.0 BMM/2023-1.0-py310-tiled
# Beamline.name: BMM (06BM) -- Beamline for Materials Measurement (NIST)
# Beamline.xray_source: NSLS-II three-pole wiggler
# Beamline.collimation: paraboloid mirror, 5 nm Rh on 30 nm Pt
# Beamline.focusing: not in use
# Beamline.harmonic_rejection: flat mirror, Si stripe, pitch = 7.0 mrad relative to beam
# Beamline.software: Bluesky 1.10.0, Ophyd 1.7.0, DataBroker 2.0.0b13, Python 3.10.8, 2023-1.0-py310-tiled
# Detector.I0: 10 cm N2
# Detector.I1: 25 cm N2
# Detector.I2: 25 cm N2
# Element.symbol: Gd
# Element.edge: L3
# Element.reference: Gd
# Element.reference_material: Gd2O3
# Facility.name: NSLS-II
# Facility.energy: 3.0
# Facility.current: 397.3
# Facility.mode: top-off
# Facility.GUP: 123456
# Facility.SAF: 301027
# Facility.cycle: 2023-2
# Mono.name: Si(111)
# Mono.d_spacing: 3.13519
# Mono.encoder_resolution: 0.0000050 deg/ct
# Mono.angle_offset: 16.0754 deg
# Mono.scan_mode: pseudo channel cut
# Mono.scan_type: step
# Mono.direction: forward in energy
# Sample.name: Gd2Ti2O7
# Sample.prep: Powder in PEG pellet
# Sample.x: 149.848 mm
# Sample.y: 114.690 mm
# Sample.SDD_position: 205.000 mm
# Scan.experimenters: Bruce Ravel
# Scan.edge_energy: 7242.8
# Scan.start_time: 2023-05-08T18:17:32
# Scan.end_time: 2023-05-08T18:23:15
# Scan.transient_id: 75483
# Scan.uid: c05e67ee-5012-4dd7-bfc7-33af8a257bb2
# Scan.plot_hint: ln(I0/It)  --  ln($5/$6)
# Column.1: energy eV
# Column.2: requested_energy eV
# Column.3: measurement_time seconds
# Column.4: xmu
# Column.5: I0 nA
# Column.6: It nA
# Column.7: Ir nA
# ///////////
# sample courtesy Martin Stennett, University of Sheffield
# -----------
# energy  requested_energy  measurement_time  xmu  I0  It  Ir
  7042.807  7042.800  0.500  1.512848  150.049  33.053  6.388432
  7062.815  7062.800  0.500  1.495925  148.694  33.3136  6.528078
  7082.845  7082.800  0.500  1.479462  148.913  33.9165  6.735646
  7102.827  7102.800  0.500  1.462985  150.019  34.736  6.992342
  7122.821  7122.800  0.500  1.446923  149.913  35.2735  7.195839
  7142.816  7142.800  0.500  1.431246  149.676  35.7742  7.390829
  7162.812  7162.800  0.500  1.415808  149.69  36.3342  7.604975
  7182.815  7182.800  0.500  1.400181  149.474  36.8532  7.809533
  7202.814  7202.800  0.500  1.385966  149.124  37.2932  7.995748
  7214.802  7214.800  0.500  1.378537  149.005  37.5413  8.095775
  7218.801  7218.800  0.500  1.376700  148.912  37.5869  8.116721
  7222.795  7222.800  0.500  1.376229  148.825  37.5826  8.122476
  7226.799  7226.800  0.500  1.376347  148.485  37.4924  8.100693
  7230.801  7230.800  0.500  1.379000  148.828  37.4793  8.076589
  7233.286  7233.300  0.500  1.383863  148.768  37.2825  8.004244
  7234.283  7234.300  0.500  1.386197  148.737  37.1879  7.963385
  7235.285  7235.300  0.500  1.389944  148.703  37.0402  7.907604
  7236.285  7236.300  0.500  1.395200  148.686  36.842  7.832407
  7237.282  7237.300  0.500  1.401758  148.675  36.5984  7.734164
  7238.287  7238.300  0.500  1.410928  148.667  36.2625  7.598742
  7239.288  7239.300  0.500  1.424912  148.647  35.754  7.398813
  7240.294  7240.300  0.500  1.444256  148.616  35.0617  7.127514
  7241.284  7241.300  0.500  1.467575  148.584  34.2461  6.806579
  7242.289  7242.300  0.500  1.495204  148.572  33.3102  6.435002
  7243.295  7243.300  0.500  1.540292  148.529  31.8325  5.857196
  7244.293  7244.300  0.500  1.613842  147.353  29.3411  4.967667
  7245.292  7245.300  0.500  1.716209  146.115  26.2636  3.950589
  7246.288  7246.300  0.500  1.814407  148.266  24.1577  3.279864
  7247.294  7247.300  0.500  1.881624  148.407  22.6087  2.889589
  7248.297  7248.300  0.500  1.912806  148.423  21.9169  2.693334
  7249.299  7249.300  0.500  1.902344  148.404  22.1446  2.710619
  7250.292  7250.300  0.500  1.856597  148.38  23.1774  2.970173
  7251.292  7251.300  0.500  1.792421  148.327  24.7047  3.414614
  7252.300  7252.300  0.500  1.725192  148.26  26.4109  3.944946
  7253.298  7253.300  0.500  1.673441  148.01  27.7666  4.400320
  7254.290  7254.300  0.500  1.638138  145.915  28.3573  4.687208
  7255.293  7255.300  0.500  1.614446  148.157  29.4833  5.016601
  7256.297  7256.300  0.500  1.598840  148.456  30.0076  5.205511
  7257.299  7257.300  0.500  1.584487  148.378  30.4254  5.348018
  7258.299  7258.300  0.500  1.573592  148.302  30.7428  5.454286
  7259.304  7259.300  0.500  1.565052  148.226  30.9907  5.539134
  7260.300  7260.300  0.500  1.558919  148.116  31.1581  5.593609
  7261.303  7261.300  0.500  1.554717  147.856  31.2345  5.619565
  7262.304  7262.300  0.500  1.553058  147.266  31.1614  5.604234
  7263.303  7263.300  0.500  1.554131  144.491  30.5415  5.486895
  7264.309  7264.300  0.500  1.556917  123.024  25.9315  4.652207
  7265.299  7265.300  0.500  1.560726  138.204  29.0206  5.199858
  7266.299  7266.300  0.500  1.566962  148.108  30.907  5.541897
  7267.304  7267.300  0.500  1.571456  148.549  30.8599  5.545724
  7268.791  7268.790  0.500  1.574442  148.62  30.7825  5.557971
  7270.820  7270.810  0.500  1.573222  148.573  30.8104  5.588854
  7272.920  7272.920  0.500  1.572762  148.313  30.7707  5.567525
  7275.114  7275.100  0.500  1.576698  148.412  30.6702  5.503581
  7277.367  7277.360  0.500  1.583381  148.626  30.5099  5.410058
  7279.698  7279.690  0.500  1.591094  148.58  30.2662  5.288475
  7282.114  7282.100  0.500  1.597234  148.513  30.0672  5.186320
  7284.584  7284.580  0.500  1.597419  145.747  29.5018  5.069697
  7287.159  7287.140  0.500  1.591045  148.319  30.2145  5.226320
  7289.794  7289.780  0.500  1.581794  148.355  30.5026  5.339085
  7292.507  7292.500  0.500  1.571099  148.32  30.8234  5.456800
  7295.302  7295.290  0.500  1.561576  148.291  31.1123  5.553480
  7298.157  7298.150  0.500  1.554636  148.225  31.3149  5.628408
  7301.100  7301.090  0.500  1.550026  146.716  31.1395  5.630551
  7304.118  7304.110  0.500  1.548287  148.294  31.5292  5.726911
  7307.215  7307.210  0.500  1.548645  148.219  31.5018  5.746202
  7310.390  7310.380  0.500  1.550079  148.167  31.4456  5.751351
  7313.650  7313.630  0.500  1.553887  148.119  31.3161  5.735518
  7316.963  7316.950  0.500  1.555106  148.08  31.2695  5.721228
  7320.364  7320.350  0.500  1.552504  148.03  31.3405  5.718274
  7323.845  7323.830  0.500  1.548982  147.979  31.4402  5.719767
  7327.391  7327.380  0.500  1.544371  147.926  31.5742  5.733826
  7331.014  7331.010  0.500  1.539494  147.877  31.718  5.762521
  7334.723  7334.710  0.500  1.535623  147.828  31.8306  5.795869
  7338.505  7338.490  0.500  1.535146  146.76  31.6157  5.775231
  7342.363  7342.350  0.500  1.535935  147.583  31.7679  5.819671
  7346.295  7346.280  0.500  1.535861  147.586  31.7708  5.837503
  7350.305  7350.290  0.500  1.532372  147.537  31.8712  5.870604
  7354.393  7354.380  0.500  1.527322  147.464  32.0168  5.909151
  7358.557  7358.540  0.500  1.523342  147.414  32.1336  5.944929
  7362.800  7362.780  0.500  1.518529  147.358  32.2765  5.997808
  7367.107  7367.090  0.500  1.512617  147.283  32.4513  6.069133
  7371.494  7371.480  0.500  1.508025  147.253  32.594  6.138077
  7375.954  7375.950  0.500  1.506942  147.168  32.6105  6.172768
  7380.502  7380.490  0.500  1.506180  147.085  32.617  6.184081
  7385.123  7385.110  0.500  1.505422  147.024  32.6281  6.186452
  7389.811  7389.800  0.500  1.503017  146.971  32.6948  6.203419
  7394.577  7394.570  0.500  1.500000  146.894  32.7764  6.214805
  7399.434  7399.420  0.500  1.496664  146.831  32.872  6.229123
  7404.362  7404.350  0.500  1.492316  146.756  32.9983  6.260347
  7409.360  7409.350  0.500  1.486755  146.679  33.165  6.313337
  7414.442  7414.420  0.500  1.482090  146.604  33.303  6.378535
  7419.581  7419.570  0.500  1.478284  147.163  33.5575  6.465877
  7424.814  7424.800  0.500  1.475278  147.073  33.6378  6.507334
  7430.116  7430.110  0.500  1.473221  146.964  33.6821  6.531645
  7435.501  7435.490  0.500  1.471179  146.857  33.7264  6.552613
  7440.959  7440.950  0.500  1.468015  146.716  33.8008  6.581871
  7446.483  7446.480  0.500  1.463956  143.973  33.3038  6.500321
  7452.103  7452.090  0.500  1.460662  146.357  33.967  6.657039
  7457.774  7457.770  0.500  1.456297  146.371  34.1187  6.723014
  7463.549  7463.540  0.500  1.450411  146.434  34.335  6.798914
  7469.374  7469.370  0.500  1.445723  146.46  34.5025  6.857518
  7475.310  7475.290  0.500  1.441767  146.278  34.5961  6.893699
  7481.285  7481.280  0.500  1.438325  146.138  34.6823  6.926237
  7487.367  7487.350  0.500  1.434894  146.014  34.7718  6.960524
  7493.500  7493.490  0.500  1.431393  145.878  34.8614  6.995970
  7499.726  7499.710  0.500  1.427868  145.773  34.9592  7.036836
  7506.005  7506.000  0.500  1.423619  145.63  35.0738  7.087413
  7512.386  7512.370  0.500  1.418521  145.507  35.2231  7.148903
  7518.827  7518.820  0.500  1.413480  145.391  35.3729  7.213183
  7525.366  7525.350  0.500  1.409002  145.259  35.4995  7.272711
  7531.958  7531.950  0.500  1.404543  145.123  35.6246  7.327558
  7538.632  7538.620  0.500  1.400606  144.986  35.7315  7.374215
  7545.384  7545.370  0.500  1.396814  144.847  35.8328  7.418627
  7552.214  7552.200  0.500  1.393174  144.698  35.9264  7.463870
  7559.127  7559.110  0.500  1.388825  144.534  36.0422  7.521126
  7566.110  7566.090  0.500  1.383756  144.351  36.1794  7.584892
  7573.189  7573.150  0.500  1.378386  144.192  36.3342  7.649038
  7580.296  7580.280  0.500  1.373464  144.017  36.4692  7.709127
  7587.513  7587.490  0.500  1.367952  143.799  36.6152  7.767490
  7594.816  7594.780  0.500  1.363354  143.519  36.7123  7.822136
  7602.158  7602.140  0.500  1.358845  141.64  36.3954  7.784661
  7609.603  7609.580  0.500  1.354589  142.501  36.7728  7.895344
  7617.108  7617.090  0.500  1.350095  142.439  36.9223  7.956338
  7624.698  7624.680  0.500  1.345489  142.624  37.1411  8.036255
  7632.365  7632.350  0.500  1.340480  142.52  37.3004  8.106663
  7640.111  7640.090  0.500  1.335141  142.313  37.4454  8.175949
  7647.928  7647.910  0.500  1.330203  142.072  37.5671  8.241204
  7655.839  7655.810  0.500  1.324716  141.88  37.7229  8.313732
  7663.797  7663.780  0.500  1.319653  141.637  37.8494  8.381314
  7671.839  7671.830  0.500  1.315003  141.381  37.957  8.445503
  7679.978  7679.950  0.500  1.309837  141.115  38.0818  8.509153
  7688.167  7688.150  0.500  1.305620  137.872  37.3639  8.378172
  7696.455  7696.430  0.500  1.300569  140.653  38.3105  8.625780
  7704.769  7704.780  0.500  1.294944  140.189  38.3996  8.687084
  7713.203  7713.210  0.500  1.289175  140.101  38.5977  8.772717
  7721.730  7721.710  0.500  1.283784  139.015  38.5055  8.793780
  7730.297  7730.290  0.500  1.278042  139.533  38.8715  8.918736
  7738.955  7738.950  0.500  1.272672  138.985  38.9272  8.976663
  7747.695  7747.690  0.500  1.267393  139.03  39.1459  9.074370
  7756.499  7756.500  0.500  1.262299  138.7  39.2523  9.140758
  7765.388  7765.380  0.500  1.257412  138.388  39.3561  9.203616
  7774.345  7774.340  0.500  1.252286  138.051  39.4621  9.262435
  7783.390  7783.380  0.500  1.246820  137.723  39.584  9.334798
  7787.952  7787.930  0.500  1.244054  137.558  39.6461  9.372728