File: xdidata/Gd/Gd-L3-Gd_sulfate.xdi
# XDI/1.0 BlueSky/1.10.0 BMM/2023-1.0-py310-tiled
# Beamline.name: BMM (06BM) -- Beamline for Materials Measurement (NIST)
# Beamline.xray_source: NSLS-II three-pole wiggler
# Beamline.collimation: paraboloid mirror, 5 nm Rh on 30 nm Pt
# Beamline.focusing: not in use
# Beamline.harmonic_rejection: flat mirror, Si stripe, pitch = 7.0 mrad relative to beam
# Beamline.software: Bluesky 1.10.0, Ophyd 1.7.0, DataBroker 2.0.0b13, Python 3.10.8, 2023-1.0-py310-tiled
# Detector.I0: 10 cm N2
# Detector.I1: 25 cm N2
# Detector.I2: 25 cm N2
# Element.symbol: Gd
# Element.edge: L3
# Element.reference: Gd
# Element.reference_material: Gd2O3
# Facility.name: NSLS-II
# Facility.energy: 3.0
# Facility.current: 395.7
# Facility.mode: top-off
# Facility.GUP: 123456
# Facility.SAF: 301027
# Facility.cycle: 2023-2
# Mono.name: Si(111)
# Mono.d_spacing: 3.13519
# Mono.encoder_resolution: 0.0000050 deg/ct
# Mono.angle_offset: 16.0754 deg
# Mono.scan_mode: pseudo channel cut
# Mono.scan_type: step
# Mono.direction: forward in energy
# Sample.name: Gd2(SO4)2
# Sample.prep: powder on tape
# Sample.x: 123.848 mm
# Sample.y: 114.690 mm
# Sample.SDD_position: 205.000 mm
# Scan.experimenters: Bruce Ravel
# Scan.edge_energy: 7242.8
# Scan.start_time: 2023-05-08T18:04:03
# Scan.end_time: 2023-05-08T18:09:58
# Scan.transient_id: 75473
# Scan.uid: 2e362f3d-5263-45a4-a86b-c8fb815727dd
# Scan.plot_hint: ln(I0/It)  --  ln($5/$6)
# Column.1: energy eV
# Column.2: requested_energy eV
# Column.3: measurement_time seconds
# Column.4: xmu
# Column.5: I0 nA
# Column.6: It nA
# Column.7: Ir nA
# ///////////
# unknown provenence
# -----------
# energy  requested_energy  measurement_time  xmu  I0  It  Ir
  7042.803  7042.800  0.500  2.356669  149.371  14.1507  2.740966
  7062.860  7062.800  0.500  2.333454  148.066  14.3565  2.819317
  7082.820  7082.800  0.500  2.310551  148.251  14.7075  2.926944
  7102.818  7102.800  0.500  2.287773  149.34  15.1568  3.057430
  7122.819  7122.800  0.500  2.266072  148.858  15.4394  3.156266
  7142.818  7142.800  0.500  2.244165  148.48  15.7412  3.259006
  7162.791  7162.800  0.500  2.223774  148.193  16.0345  3.363405
  7182.795  7182.800  0.500  2.203761  147.991  16.3363  3.470132
  7202.788  7202.800  0.500  2.187269  147.679  16.5729  3.561056
  7214.795  7214.800  0.500  2.182566  147.471  16.6277  3.593073
  7218.790  7218.800  0.500  2.183781  147.404  16.5998  3.592797
  7222.791  7222.800  0.500  2.187195  147.323  16.5342  3.581552
  7226.790  7226.800  0.500  2.195172  146.975  16.3642  3.543508
  7230.790  7230.800  0.500  2.213041  147.322  16.1122  3.481140
  7233.283  7233.300  0.500  2.233550  147.268  15.7793  3.395150
  7234.283  7234.300  0.500  2.244866  147.247  15.5996  3.348690
  7235.283  7235.300  0.500  2.259817  147.218  15.3651  3.288157
  7236.281  7236.300  0.500  2.278707  147.213  15.077  3.213034
  7237.284  7237.300  0.500  2.303781  147.172  14.6996  3.113473
  7238.285  7238.300  0.500  2.337759  147.157  14.2071  2.985515
  7239.290  7239.300  0.500  2.387357  147.145  13.5185  2.805914
  7240.292  7240.300  0.500  2.454583  147.122  12.6376  2.577703
  7241.284  7241.300  0.500  2.534824  147.105  11.6619  2.325809
  7242.295  7242.300  0.500  2.621973  147.075  10.6864  2.072543
  7243.291  7243.300  0.500  2.756447  147.028  9.338761  1.726990
  7244.291  7244.300  0.500  2.976793  145.85  7.431921  1.268607
  7245.289  7245.300  0.500  3.328564  144.636  5.184408  0.789754
  7246.297  7246.300  0.500  3.803072  146.783  3.273588  0.450991
  7247.296  7247.300  0.500  4.269102  146.914  2.055967  0.266815
  7248.293  7248.300  0.500  4.564122  146.919  1.530755  0.190990
  7249.299  7249.300  0.500  4.510509  146.928  1.615163  0.200737
  7250.297  7250.300  0.500  4.156892  146.879  2.299562  0.299468
  7251.292  7251.300  0.500  3.778807  146.844  3.355374  0.470384
  7252.297  7252.300  0.500  3.492032  146.752  4.466979  0.674198
  7253.305  7253.300  0.500  3.312020  146.506  5.339036  0.853797
  7254.306  7254.300  0.500  3.196661  144.412  5.906258  0.983987
  7255.296  7255.300  0.500  3.116288  146.676  6.500867  1.112886
  7256.304  7256.300  0.500  3.055988  146.948  6.917757  1.207293
  7257.301  7257.300  0.500  3.011467  146.905  7.230590  1.278425
  7258.303  7258.300  0.500  2.985658  146.836  7.416119  1.323457
  7259.301  7259.300  0.500  2.974594  146.758  7.494677  1.346944
  7260.304  7260.300  0.500  2.970644  146.627  7.517623  1.356793
  7261.300  7261.300  0.500  2.966313  146.382  7.537627  1.363306
  7262.297  7262.300  0.500  2.957921  145.789  7.570352  1.368784
  7263.298  7263.300  0.500  2.946499  143.052  7.513532  1.357096
  7264.300  7264.300  0.500  2.935198  121.838  6.472063  1.167419
  7265.297  7265.300  0.500  2.919911  137  7.389572  1.331229
  7266.297  7266.300  0.500  2.918146  146.707  7.927128  1.429382
  7267.302  7267.300  0.500  2.918311  147.145  7.949471  1.436143
  7268.796  7268.790  0.500  2.926666  147.236  7.888204  1.432123
  7270.818  7270.810  0.500  2.955399  147.182  7.661982  1.397648
  7272.923  7272.920  0.500  3.008693  146.917  7.251254  1.319419
  7275.111  7275.100  0.500  3.073977  147.003  6.796967  1.226552
  7277.376  7277.360  0.500  3.133075  147.23  6.416809  1.144660
  7279.698  7279.690  0.500  3.172105  147.179  6.169055  1.084747
  7282.116  7282.100  0.500  3.186642  147.111  6.077223  1.054848
  7284.590  7284.580  0.500  3.175133  144.382  6.033530  1.043306
  7287.147  7287.140  0.500  3.144679  146.927  6.329714  1.101723
  7289.792  7289.780  0.500  3.104495  146.965  6.590983  1.160890
  7292.511  7292.500  0.500  3.062807  146.946  6.870661  1.223325
  7295.298  7295.290  0.500  3.029109  146.892  7.103504  1.275439
  7298.157  7298.150  0.500  3.003995  146.842  7.281693  1.316688
  7301.097  7301.090  0.500  2.986110  145.321  7.336284  1.333824
  7304.124  7304.110  0.500  2.978858  146.892  7.469605  1.364684
  7307.220  7307.210  0.500  2.982081  146.826  7.442201  1.364874
  7310.393  7310.380  0.500  2.991140  146.785  7.373025  1.356569
  7313.650  7313.630  0.500  3.001519  146.736  7.294453  1.343412
  7316.966  7316.950  0.500  3.012208  146.684  7.214377  1.327569
  7320.366  7320.350  0.500  3.022213  146.662  7.141469  1.310768
  7323.847  7323.830  0.500  3.030439  146.582  7.079106  1.295250
  7327.391  7327.380  0.500  3.037167  146.54  7.029614  1.284323
  7331.026  7331.010  0.500  3.042554  146.491  6.989486  1.277511
  7334.728  7334.710  0.500  3.044497  146.454  6.974162  1.277564
  7338.509  7338.490  0.500  3.041131  145.307  6.942873  1.275878
  7342.370  7342.350  0.500  3.032170  146.196  7.048264  1.298981
  7346.272  7346.280  0.500  3.018690  146.206  7.144366  1.320708
  7350.291  7350.290  0.500  3.001645  146.14  7.263937  1.345476
  7354.391  7354.380  0.500  2.985179  146.093  7.382126  1.370475
  7358.559  7358.540  0.500  2.971657  146.023  7.479063  1.391852
  7362.790  7362.780  0.500  2.962328  145.957  7.545730  1.410437
  7367.100  7367.090  0.500  2.957234  145.887  7.580651  1.425906
  7371.487  7371.480  0.500  2.956545  145.838  7.583325  1.436432
  7375.956  7375.950  0.500  2.957704  145.751  7.570030  1.441387
  7380.502  7380.490  0.500  2.959331  145.679  7.553970  1.439754
  7385.116  7385.110  0.500  2.961810  145.615  7.531988  1.436273
  7389.804  7389.800  0.500  2.963178  145.549  7.518262  1.434589
  7394.575  7394.570  0.500  2.966956  145.484  7.486554  1.427747
  7399.429  7399.420  0.500  2.964229  145.411  7.503241  1.430819
  7404.362  7404.350  0.500  2.957678  145.327  7.548172  1.439832
  7409.355  7409.350  0.500  2.950587  145.224  7.596498  1.454385
  7414.421  7414.420  0.500  2.941729  145.159  7.660681  1.476252
  7419.577  7419.570  0.500  2.931174  145.075  7.737513  1.499052
  7424.809  7424.800  0.500  2.924903  144.989  7.781543  1.513960
  7430.120  7430.110  0.500  2.919012  144.889  7.822127  1.525225
  7435.505  7435.490  0.500  2.913462  144.76  7.858646  1.535642
  7440.959  7440.950  0.500  2.906759  144.628  7.904280  1.547574
  7446.495  7446.480  0.500  2.899251  142.032  7.820912  1.535088
  7452.096  7452.090  0.500  2.893997  144.291  7.987181  1.574064
  7457.788  7457.770  0.500  2.889285  144.281  8.024326  1.590273
  7463.551  7463.540  0.500  2.886515  144.339  8.049815  1.602644
  7469.381  7469.370  0.500  2.883504  144.371  8.075870  1.613611
  7475.312  7475.290  0.500  2.879640  144.179  8.096385  1.622487
  7481.296  7481.280  0.500  2.874459  144.051  8.131178  1.632810
  7487.369  7487.350  0.500  2.868884  143.919  8.169179  1.644363
  7493.508  7493.490  0.500  2.862147  143.804  8.217789  1.658112
  7499.730  7499.710  0.500  2.854893  143.703  8.271861  1.674321
  7506.021  7506.000  0.500  2.847640  143.569  8.324281  1.691923
  7512.386  7512.370  0.500  2.840555  143.447  8.376333  1.709599
  7518.836  7518.820  0.500  2.833361  143.312  8.428842  1.727767
  7525.368  7525.350  0.500  2.825953  143.194  8.484552  1.747709
  7531.965  7531.950  0.500  2.819573  143.057  8.530715  1.764367
  7538.639  7538.620  0.500  2.812645  142.904  8.580817  1.780855
  7545.405  7545.370  0.500  2.805376  142.77  8.635277  1.797471
  7552.233  7552.200  0.500  2.798799  142.642  8.684471  1.813614
  7559.132  7559.110  0.500  2.792009  142.573  8.739452  1.833897
  7566.110  7566.090  0.500  2.786226  142.506  8.785974  1.851646
  7573.147  7573.150  0.500  2.779464  142.35  8.835898  1.870226
  7580.269  7580.280  0.500  2.773494  142.214  8.880316  1.886585
  7587.511  7587.490  0.500  2.766587  142.041  8.930992  1.904889
  7594.784  7594.780  0.500  2.759545  141.767  8.976737  1.922486
  7602.175  7602.140  0.500  2.751717  140.024  8.936068  1.921258
  7609.573  7609.580  0.500  2.744846  140.831  9.049527  1.952759
  7617.101  7617.090  0.500  2.737417  140.927  9.123273  1.975906
  7624.713  7624.680  0.500  2.729471  141.124  9.208908  2.002082
  7632.383  7632.350  0.500  2.721687  141.099  9.279197  2.027326
  7640.096  7640.090  0.500  2.713317  140.961  9.348031  2.051941
  7647.920  7647.910  0.500  2.705403  140.778  9.410096  2.074582
  7655.831  7655.810  0.500  2.697363  140.653  9.477588  2.099227
  7663.799  7663.780  0.500  2.689727  140.525  9.541565  2.123702
  7671.849  7671.830  0.500  2.682254  140.351  9.601265  2.147646
  7679.980  7679.950  0.500  2.674043  140.145  9.666205  2.171206
  7688.182  7688.150  0.500  2.665621  137.048  9.532566  2.148654
  7696.455  7696.430  0.500  2.658171  139.768  9.794387  2.216439
  7704.804  7704.780  0.500  2.650567  139.469  9.848080  2.238549
  7713.254  7713.210  0.500  2.642148  139.463  9.930912  2.268323
  7721.684  7721.710  0.500  2.633968  138.456  9.940185  2.282025
  7730.266  7730.290  0.500  2.625682  138.974  10.0604  2.319904
  7738.940  7738.950  0.500  2.616821  138.48  10.1138  2.343401
  7747.713  7747.690  0.500  2.608593  138.63  10.2085  2.377612
  7756.474  7756.500  0.500  2.599989  138.347  10.2756  2.404579
  7765.355  7765.380  0.500  2.591036  138.156  10.3538  2.432703
  7774.327  7774.340  0.500  2.581947  137.91  10.4297  2.460069
  7783.364  7783.380  0.500  2.573240  137.611  10.4981  2.487872
  7787.910  7787.930  0.500  2.568645  137.414  10.5313  2.501717