File: xdidata/Gd/Gd-L1-Gd_sulfate.xdi
# XDI/1.0 BlueSky/1.10.0 BMM/2023-1.0-py310-tiled
# Beamline.name: BMM (06BM) -- Beamline for Materials Measurement (NIST)
# Beamline.xray_source: NSLS-II three-pole wiggler
# Beamline.collimation: paraboloid mirror, 5 nm Rh on 30 nm Pt
# Beamline.focusing: not in use
# Beamline.harmonic_rejection: flat mirror, Pt stripe, pitch = 7.0 mrad relative to beam
# Beamline.software: Bluesky 1.10.0, Ophyd 1.7.0, DataBroker 2.0.0b13, Python 3.10.8, 2023-1.0-py310-tiled
# Detector.I0: 10 cm N2
# Detector.I1: 25 cm N2
# Detector.I2: 25 cm N2
# Element.symbol: Gd
# Element.edge: L1
# Element.reference: Gd
# Element.reference_material: Gd2O3
# Facility.name: NSLS-II
# Facility.energy: 3.0
# Facility.current: 400.8
# Facility.mode: top-off
# Facility.GUP: 123456
# Facility.SAF: 301027
# Facility.cycle: 2023-2
# Mono.name: Si(111)
# Mono.d_spacing: 3.13519
# Mono.encoder_resolution: 0.0000050 deg/ct
# Mono.angle_offset: 16.0754 deg
# Mono.scan_mode: pseudo channel cut
# Mono.scan_type: step
# Mono.direction: forward in energy
# Sample.name: Gd2(SO4)2
# Sample.prep: powder on tape
# Sample.x: 123.848 mm
# Sample.y: 114.690 mm
# Sample.SDD_position: 205.000 mm
# Scan.experimenters: Bruce Ravel
# Scan.edge_energy: 8375.6
# Scan.start_time: 2023-05-08T21:37:56
# Scan.end_time: 2023-05-08T21:43:41
# Scan.transient_id: 75637
# Scan.uid: fbfba659-7cf8-4d0b-abed-c4a5bf272e04
# Scan.plot_hint: ln(I0/It)  --  ln($5/$6)
# Column.1: energy eV
# Column.2: requested_energy eV
# Column.3: measurement_time seconds
# Column.4: xmu
# Column.5: I0 nA
# Column.6: It nA
# Column.7: Ir nA
# ///////////
# unknown provenence
# -----------
# energy  requested_energy  measurement_time  xmu  I0  It  Ir
  8175.616  8175.600  0.500  2.637017  135.463  9.695675  2.501672
  8195.623  8195.600  0.500  2.619561  135.154  9.843897  2.560797
  8215.632  8215.600  0.500  2.603043  134.784  9.980479  2.621130
  8235.647  8235.600  0.500  2.586960  134.427  10.1154  2.677433
  8255.614  8255.600  0.500  2.572085  134.042  10.2376  2.733807
  8275.601  8275.600  0.500  2.557463  133.685  10.3607  2.789356
  8295.609  8295.600  0.500  2.541820  133.316  10.495  2.848172
  8315.610  8315.600  0.500  2.526638  132.946  10.626  2.906330
  8335.609  8335.600  0.500  2.511589  132.332  10.7373  2.961628
  8347.591  8347.600  0.500  2.503586  131.941  10.7916  2.990438
  8351.584  8351.600  0.500  2.501428  131.623  10.7889  2.994040
  8355.591  8355.600  0.500  2.499324  131.49  10.8006  3.001099
  8359.581  8359.600  0.500  2.497555  131.423  10.8143  3.008561
  8363.589  8363.600  0.500  2.496022  131.402  10.8291  3.015041
  8366.071  8366.100  0.500  2.494920  131.351  10.8368  3.019023
  8367.076  8367.100  0.500  2.494827  131.326  10.8358  3.019364
  8368.082  8368.100  0.500  2.494566  131.316  10.8378  3.021291
  8369.076  8369.100  0.500  2.494557  131.308  10.8372  3.021696
  8370.080  8370.100  0.500  2.494596  131.282  10.8347  3.020971
  8371.080  8371.100  0.500  2.494942  131.26  10.8291  3.019686
  8372.090  8372.100  0.500  2.495280  131.235  10.8234  3.017210
  8373.088  8373.100  0.500  2.496135  131.206  10.8117  3.013214
  8374.080  8374.100  0.500  2.497068  131.184  10.7999  3.008846
  8375.082  8375.100  0.500  2.498201  131.16  10.7856  3.003143
  8376.093  8376.100  0.500  2.499927  131.138  10.7653  2.994194
  8377.092  8377.100  0.500  2.503003  131.111  10.7299  2.978692
  8378.088  8378.100  0.500  2.507835  131.089  10.6765  2.956742
  8379.094  8379.100  0.500  2.514483  131.063  10.6036  2.929515
  8380.091  8380.100  0.500  2.522502  131.041  10.5171  2.899784
  8381.100  8381.100  0.500  2.529625  131.016  10.4405  2.872631
  8382.100  8382.100  0.500  2.536680  130.996  10.3655  2.845558
  8383.089  8383.100  0.500  2.546453  130.954  10.2614  2.811517
  8384.089  8384.100  0.500  2.561118  130.921  10.1095  2.763235
  8385.096  8385.100  0.500  2.579467  130.887  9.923125  2.706342
  8386.098  8386.100  0.500  2.598747  130.846  9.730568  2.645719
  8387.099  8387.100  0.500  2.618279  130.807  9.539526  2.583970
  8388.092  8388.100  0.500  2.637290  130.756  9.356212  2.523879
  8389.094  8389.100  0.500  2.657582  130.732  9.166609  2.461158
  8390.108  8390.100  0.500  2.678139  130.686  8.976931  2.400996
  8391.102  8391.100  0.500  2.694673  130.654  8.827567  2.354718
  8392.098  8392.100  0.500  2.705884  130.644  8.728468  2.326153
  8393.105  8393.100  0.500  2.711006  130.617  8.682112  2.314177
  8394.099  8394.100  0.500  2.710718  130.591  8.682857  2.315810
  8395.099  8395.100  0.500  2.706062  130.562  8.721426  2.327699
  8396.112  8396.100  0.500  2.699189  130.527  8.779282  2.344152
  8397.104  8397.100  0.500  2.692378  130.499  8.837379  2.360103
  8398.090  8398.100  0.500  2.685775  130.467  8.893705  2.375026
  8399.101  8399.100  0.500  2.679819  130.422  8.943787  2.387660
  8400.099  8400.100  0.500  2.674916  130.409  8.986854  2.400678
  8401.595  8401.590  0.500  2.666933  130.371  9.056219  2.420089
  8403.618  8403.610  0.500  2.655236  130.327  9.159689  2.452017
  8405.739  8405.720  0.500  2.643646  130.282  9.263237  2.487943
  8407.906  8407.900  0.500  2.632828  130.239  9.360890  2.525842
  8410.172  8410.160  0.500  2.622480  130.196  9.455130  2.562877
  8412.500  8412.490  0.500  2.613032  130.124  9.539676  2.594692
  8414.917  8414.900  0.500  2.604696  130.082  9.616402  2.622807
  8417.394  8417.380  0.500  2.597035  130.03  9.686487  2.646165
  8419.942  8419.940  0.500  2.592679  129.965  9.723904  2.660313
  8422.595  8422.580  0.500  2.594120  129.895  9.704685  2.657282
  8425.304  8425.300  0.500  2.600732  129.848  9.637216  2.639744
  8428.095  8428.090  0.500  2.609629  129.778  9.546683  2.615556
  8430.970  8430.950  0.500  2.616538  129.709  9.475946  2.597023
  8433.907  8433.890  0.500  2.620671  129.638  9.431682  2.583555
  8436.924  8436.910  0.500  2.621062  129.565  9.422707  2.580774
  8440.025  8440.010  0.500  2.619877  129.51  9.429882  2.581464
  8443.198  8443.180  0.500  2.617512  129.421  9.445715  2.584629
  8446.442  8446.430  0.500  2.614362  129.336  9.469247  2.591894
  8449.755  8449.750  0.500  2.611009  129.244  9.494287  2.602369
  8453.157  8453.150  0.500  2.606217  129.164  9.533990  2.620507
  8456.645  8456.630  0.500  2.599803  129.085  9.589509  2.643143
  8460.188  8460.180  0.500  2.592985  128.997  9.648489  2.667159
  8463.823  8463.810  0.500  2.585819  129.369  9.745900  2.699214
  8467.520  8467.510  0.500  2.579988  129.279  9.796124  2.717101
  8471.294  8471.290  0.500  2.575119  129.177  9.836166  2.730797
  8475.139  8475.150  0.500  2.571930  129.074  9.859688  2.740080
  8479.084  8479.080  0.500  2.569911  129.012  9.874864  2.749924
  8483.091  8483.090  0.500  2.567992  128.9  9.885287  2.759526
  8487.182  8487.180  0.500  2.567173  128.787  9.884649  2.765689
  8491.348  8491.340  0.500  2.566175  128.672  9.885723  2.771343
  8495.593  8495.580  0.500  2.564759  128.578  9.892467  2.778774
  8499.905  8499.890  0.500  2.562953  128.474  9.902383  2.785120
  8504.298  8504.280  0.500  2.560157  128.36  9.921288  2.793880
  8508.765  8508.750  0.500  2.556674  128.226  9.945531  2.802092
  8513.305  8513.290  0.500  2.552782  128.109  9.975190  2.814228
  8517.921  8517.910  0.500  2.548759  127.976  10.005  2.827477
  8522.608  8522.600  0.500  2.543912  127.794  10.0393  2.843238
  8527.385  8527.370  0.500  2.538983  127.215  10.0432  2.848833
  8532.233  8532.220  0.500  2.533419  123.388  9.795437  2.784904
  8537.155  8537.150  0.500  2.530539  127.532  10.1536  2.893825
  8542.162  8542.150  0.500  2.525826  127.457  10.1956  2.913649
  8547.231  8547.220  0.500  2.521709  127.325  10.227  2.928695
  8552.382  8552.370  0.500  2.517999  127.193  10.2544  2.940786
  8557.611  8557.600  0.500  2.514311  127.064  10.2818  2.952225
  8562.925  8562.910  0.500  2.510916  126.929  10.3059  2.965307
  8568.307  8568.290  0.500  2.506902  126.79  10.336  2.980586
  8573.777  8573.750  0.500  2.503153  126.626  10.3614  2.994581
  8579.305  8579.280  0.500  2.499616  126.45  10.3837  3.008697
  8584.907  8584.890  0.500  2.496535  126.233  10.3978  3.020553
  8590.596  8590.570  0.500  2.493264  125.185  10.3452  3.012047
  8596.368  8596.340  0.500  2.488598  125.301  10.4032  3.035358
  8602.197  8602.170  0.500  2.483628  125.557  10.4765  3.061493
  8608.109  8608.090  0.500  2.478661  125.132  10.493  3.072506
  8614.101  8614.080  0.500  2.474008  123.389  10.3951  3.050137
  8620.164  8620.150  0.500  2.468716  125.98  10.6697  3.138024
  8626.307  8626.290  0.500  2.463949  126.135  10.7339  3.164163
  8632.536  8632.510  0.500  2.459519  125.701  10.7444  3.174003
  8638.825  8638.800  0.500  2.455155  125.171  10.7459  3.183228
  8645.194  8645.170  0.500  2.449063  122.647  10.5936  3.145945
  8651.641  8651.620  0.500  2.445158  125.008  10.8397  3.226840
  8658.165  8658.150  0.500  2.440186  124.846  10.8797  3.247748
  8664.776  8664.750  0.500  2.435401  124.671  10.9165  3.265984
  8671.440  8671.420  0.500  2.430744  124.497  10.9522  3.283913
  8678.186  8678.170  0.500  2.425940  124.332  10.9903  3.304115
  8685.013  8685.000  0.500  2.421236  124.156  11.0265  3.323828
  8691.930  8691.910  0.500  2.416552  123.957  11.0605  3.343472
  8698.910  8698.890  0.500  2.411734  123.676  11.0887  3.359938
  8705.967  8705.950  0.500  2.406838  121.428  10.9406  3.323237
  8713.094  8713.080  0.500  2.401798  123.518  11.1852  3.405445
  8720.305  8720.290  0.500  2.396348  123.402  11.2358  3.429840
  8727.598  8727.580  0.500  2.391210  123.248  11.2795  3.452307
  8734.952  8734.940  0.500  2.385851  123.074  11.3241  3.473892
  8742.400  8742.380  0.500  2.380476  122.891  11.3682  3.497630
  8749.902  8749.890  0.500  2.374818  122.707  11.4156  3.521484
  8757.492  8757.480  0.500  2.369633  122.522  11.4576  3.545013
  8765.176  8765.150  0.500  2.364297  122.339  11.5018  3.567665
  8772.902  8772.890  0.500  2.358751  122.14  11.5469  3.592807
  8780.730  8780.710  0.500  2.353610  121.963  11.5896  3.615488
  8788.634  8788.610  0.500  2.348061  121.744  11.6332  3.639701
  8796.603  8796.580  0.500  2.342463  121.53  11.6779  3.664427
  8804.651  8804.630  0.500  2.336927  121.344  11.7247  3.688402
  8812.773  8812.750  0.500  2.330779  121.132  11.7765  3.714372
  8820.975  8820.950  0.500  2.325067  120.911  11.8223  3.739309
  8829.239  8829.230  0.500  2.319751  120.705  11.865  3.764602
  8837.586  8837.580  0.500  2.313576  120.502  11.9185  3.792678
  8846.027  8846.010  0.500  2.308238  120.268  11.959  3.816596
  8854.528  8854.510  0.500  2.302310  120.049  12.0082  3.844022
  8863.107  8863.090  0.500  2.296085  119.813  12.0594  3.871275
  8871.771  8871.750  0.500  2.290051  119.568  12.1076  3.898820
  8880.503  8880.490  0.500  2.283760  119.344  12.1611  3.926690
  8889.314  8889.300  0.500  2.277734  119.106  12.2103  3.954381
  8898.207  8898.180  0.500  2.271607  118.859  12.2599  3.981979
  8907.181  8907.140  0.500  2.265489  118.547  12.3027  4.007517
  8916.197  8916.180  0.500  2.259599  118.26  12.3455  4.035136
  8920.753  8920.730  0.500  2.256722  118.244  12.3793  4.051628