File: xdidata/Data/Er/Er-L3-ErbiumOxide.xdi
# XDI/1.0 BlueSky/1.10.0 BMM/2023-1.0-py310-tiled
# Beamline.name: BMM (06BM) -- Beamline for Materials Measurement (NIST)
# Beamline.xray_source: NSLS-II three-pole wiggler
# Beamline.collimation: paraboloid mirror, 5 nm Rh on 30 nm Pt
# Beamline.focusing: not in use
# Beamline.harmonic_rejection: flat mirror, Pt stripe, pitch = 7.0 mrad relative to beam
# Beamline.software: Bluesky 1.10.0, Ophyd 1.7.0, DataBroker 2.0.0b13, Python 3.10.8, 2023-1.0-py310-tiled
# Detector.I0: 10 cm N2
# Detector.I1: 25 cm N2
# Detector.I2: 25 cm N2
# Element.symbol: Er
# Element.edge: L3
# Element.reference: Er
# Element.reference_material: Er2O3
# Facility.name: NSLS-II
# Facility.energy: 3.0
# Facility.current: 399.7
# Facility.mode: top-off
# Facility.GUP: 301027
# Facility.SAF: 310583
# Facility.cycle: 2023-2
# Mono.name: Si(111)
# Mono.d_spacing: 3.13519
# Mono.encoder_resolution: 0.0000050 deg/ct
# Mono.angle_offset: 16.0754 deg
# Mono.scan_mode: pseudo channel cut
# Mono.scan_type: step
# Mono.direction: forward in energy
# Sample.name: Er2O3
# Sample.prep: PEG pellet
# Sample.x: 109.138 mm
# Sample.y: 153.150 mm
# Sample.SDD_position: 205.000 mm
# Scan.experimenters: Bruce Ravel
# Scan.edge_energy: 8357.9
# Scan.start_time: 2023-05-28T15:06:19
# Scan.end_time: 2023-05-28T15:14:14
# Scan.transient_id: 78784
# Scan.uid: 55ed502f-0ccd-4cb3-8f53-ce5b6a5c8679
# Scan.plot_hint: ln(It/Ir)  --  ln($6/$7)
# Column.1: energy eV
# Column.2: requested_energy eV
# Column.3: measurement_time seconds
# Column.4: xmu
# Column.5: I0 nA
# Column.6: It nA
# Column.7: Ir nA
# ///////////
# sample courtesy Martin Stennett, University of Sheffield
# -----------
# energy  requested_energy  measurement_time  xmu  I0  It  Ir
  8157.914  8157.900  0.500  1.121404  134.736  167.766  54.662
  8187.923  8187.900  0.500  1.109507  134.296  168.091  55.4231
  8217.940  8217.900  0.500  1.097682  133.89  168.373  56.1764
  8247.920  8247.900  0.500  1.086233  133.51  168.677  56.9261
  8277.915  8277.900  0.500  1.074952  132.89  168.695  57.5781
  8307.913  8307.900  0.500  1.064974  132.613  169.162  58.3165
  8329.896  8329.900  0.500  1.060649  132.27  169.282  58.6106
  8335.886  8335.900  0.500  1.061617  131.99  169.109  58.4942
  8341.885  8341.900  0.500  1.065553  131.821  169.052  58.2448
  8347.889  8347.900  0.500  1.079426  131.638  168.954  57.409
  8348.774  8348.800  0.500  1.083679  131.551  168.833  57.1243
  8349.683  8349.700  0.500  1.089489  131.887  169.291  56.9475
  8350.577  8350.600  0.500  1.097247  131.844  169.288  56.5063
  8351.483  8351.500  0.500  1.107416  131.761  169.187  55.9014
  8352.386  8352.400  0.500  1.118984  131.693  169.144  55.2444
  8353.283  8353.300  0.500  1.129902  131.628  169.074  54.622
  8354.178  8354.200  0.500  1.141995  131.602  169.061  53.9612
  8355.082  8355.100  0.500  1.159504  131.574  169.059  53.024
  8355.998  8356.000  0.500  1.187332  131.6  169.125  51.589
  8356.902  8356.900  0.500  1.230991  131.563  169.105  49.3791
  8357.801  8357.800  0.500  1.294755  131.545  169.072  46.3199
  8358.691  8358.700  0.500  1.383140  131.535  169.067  42.4004
  8359.590  8359.600  0.500  1.495002  131.523  169.071  37.9139
  8360.501  8360.500  0.500  1.600060  131.52  169.119  34.1424
  8361.394  8361.400  0.500  1.666517  131.506  169.104  31.9445
  8362.296  8362.300  0.500  1.702649  131.481  169.134  30.8162
  8363.190  8363.200  0.500  1.720911  131.489  169.162  30.2636
  8364.102  8364.100  0.500  1.714723  131.467  169.161  30.4512
  8365.008  8365.000  0.500  1.674187  131.444  169.145  31.708
  8365.894  8365.900  0.500  1.607413  131.445  169.16  33.9006
  8366.791  8366.800  0.500  1.533240  131.404  169.116  36.5012
  8367.704  8367.700  0.500  1.467683  131.405  169.142  38.9803
  8368.596  8368.600  0.500  1.417737  131.41  169.16  40.981
  8369.506  8369.500  0.500  1.383123  131.362  169.13  42.4167
  8370.395  8370.400  0.500  1.360295  131.366  169.19  43.4118
  8371.306  8371.300  0.500  1.342812  131.359  169.162  44.17
  8372.204  8372.200  0.500  1.329669  131.333  169.152  44.7517
  8373.103  8373.100  0.500  1.319986  131.311  169.171  45.1921
  8373.999  8374.000  0.500  1.312934  131.273  169.163  45.5099
  8374.899  8374.900  0.500  1.308318  131.276  169.189  45.7273
  8375.804  8375.800  0.500  1.305877  131.257  169.19  45.8394
  8376.698  8376.700  0.500  1.305917  131.233  169.192  45.8382
  8377.604  8377.600  0.500  1.307908  131.216  169.163  45.7393
  8378.495  8378.500  0.500  1.310741  131.219  169.206  45.6213
  8379.404  8379.400  0.500  1.313077  131.187  169.164  45.5036
  8380.292  8380.300  0.500  1.314066  131.166  169.196  45.4673
  8381.205  8381.200  0.500  1.313520  131.136  169.177  45.4869
  8382.097  8382.100  0.500  1.311496  131.139  169.186  45.5816
  8382.890  8382.900  0.500  1.308794  131.111  169.179  45.7031
  8385.986  8385.910  0.500  1.299591  131.027  169.151  46.1179
  8389.109  8389.100  0.500  1.308262  130.916  169.102  45.7065
  8392.470  8392.460  0.500  1.328243  130.825  169.066  44.7926
  8395.991  8395.980  0.500  1.354163  130.753  169.05  43.6424
  8399.682  8399.680  0.500  1.370712  130.703  169.074  42.9324
  8403.551  8403.550  0.500  1.358907  130.62  169.07  43.441
  8407.609  8407.600  0.500  1.338066  130.551  169.058  44.3527
  8411.820  8411.810  0.500  1.324919  130.508  169.129  44.9586
  8416.187  8416.190  0.500  1.314826  130.415  169.13  45.415
  8420.757  8420.750  0.500  1.308063  130.333  169.141  45.7261
  8425.490  8425.480  0.500  1.303612  130.242  169.14  45.9298
  8430.393  8430.380  0.500  1.302736  130.146  169.121  45.9649
  8435.458  8435.450  0.500  1.307078  130.059  169.121  45.7657
  8440.697  8440.690  0.500  1.314042  130.413  169.751  45.6175
  8446.108  8446.110  0.500  1.318049  130.342  169.75  45.4347
  8451.704  8451.690  0.500  1.317038  130.222  169.743  45.479
  8457.455  8457.450  0.500  1.314682  130.152  169.794  45.5997
  8463.399  8463.380  0.500  1.312547  130.04  169.769  45.6906
  8469.480  8469.480  0.500  1.309450  129.916  169.763  45.8306
  8475.759  8475.750  0.500  1.307273  129.779  169.732  45.9222
  8482.210  8482.190  0.500  1.302359  129.705  169.828  46.1744
  8488.814  8488.800  0.500  1.293065  129.546  169.777  46.5917
  8495.603  8495.590  0.500  1.285135  129.417  169.782  46.9639
  8502.560  8502.550  0.500  1.286066  129.29  169.763  46.9151
  8509.682  8509.670  0.500  1.287584  129.145  169.74  46.8376
  8516.974  8516.970  0.500  1.289245  129.014  169.74  46.7598
  8524.467  8524.450  0.500  1.292688  128.809  169.662  46.5777
  8532.108  8532.090  0.500  1.288845  117.185  154.48  42.573
  8539.913  8539.900  0.500  1.279700  128.436  169.509  47.1439
  8547.909  8547.890  0.500  1.275022  128.339  169.568  47.3816
  8556.064  8556.050  0.500  1.273985  128.202  169.592  47.4374
  8564.393  8564.370  0.500  1.272952  128.033  169.566  47.4792
  8572.887  8572.870  0.500  1.270956  127.875  169.567  47.5743
  8581.553  8581.550  0.500  1.264863  127.579  169.34  47.801
  8590.396  8590.390  0.500  1.259434  126.548  168.21  47.7405
  8599.413  8599.400  0.500  1.256812  127.166  169.234  48.1571
  8608.606  8608.590  0.500  1.255933  126.61  168.687  48.0436
  8617.953  8617.950  0.500  1.254582  99.2813  132.45  37.7742
  8627.481  8627.470  0.500  1.252079  127.633  170.49  48.7449
  8637.174  8637.170  0.500  1.248159  126.928  169.761  48.7271
  8647.067  8647.050  0.500  1.243111  126.577  169.527  48.9059
  8657.102  8657.090  0.500  1.237649  126.699  169.919  49.2875
  8667.316  8667.300  0.500  1.234511  126.448  169.787  49.4042
  8677.710  8677.690  0.500  1.231990  126.214  169.716  49.5081
  8688.266  8688.250  0.500  1.227930  125.986  169.661  49.6934
  8698.992  8698.980  0.500  1.223338  125.69  169.49  49.8718
  8709.891  8709.880  0.500  1.219822  122.356  165.226  48.7885
  8720.969  8720.950  0.500  1.216222  125.246  169.327  50.1798
  8732.207  8732.190  0.500  1.211944  125.035  169.329  50.3954
  8743.620  8743.610  0.500  1.208856  124.794  169.237  50.5237
  8755.204  8755.190  0.500  1.205395  124.528  169.107  50.66
  8766.973  8766.950  0.500  1.201065  124.269  169.002  50.8481
  8778.900  8778.880  0.500  1.196236  124.003  168.943  51.0765
  8791.003  8790.980  0.500  1.191345  123.698  168.739  51.2649
  8803.267  8803.250  0.500  1.186050  123.425  168.634  51.505
  8815.714  8815.690  0.500  1.182090  123.141  168.519  51.6743
  8828.334  8828.310  0.500  1.179232  122.848  168.384  51.7807
  8841.118  8841.090  0.500  1.175204  122.576  168.25  51.9481
  8854.076  8854.050  0.500  1.170165  122.285  168.122  52.171
  8867.202  8867.180  0.500  1.165188  121.969  167.935  52.373
  8880.510  8880.480  0.500  1.160127  121.659  167.779  52.5896
  8893.975  8893.950  0.500  1.155226  121.332  167.586  52.7872
  8907.621  8907.600  0.500  1.151768  120.956  167.349  52.8953
  8921.434  8921.410  0.500  1.148426  120.678  167.239  53.0375
  8935.415  8935.400  0.500  1.142764  120.426  167.149  53.31
  8949.586  8949.560  0.500  1.136663  120.081  166.958  53.5748
  8963.906  8963.890  0.500  1.131237  119.728  166.735  53.7943
  8978.413  8978.390  0.500  1.126730  119.745  167.03  54.1331
  8993.079  8993.060  0.500  1.123049  119.161  166.497  54.1591
  9007.923  9007.900  0.500  1.118850  118.957  166.5  54.388
  9022.941  9022.920  0.500  1.113740  118.681  166.381  54.6277
  9038.115  9038.100  0.500  1.107574  118.29  166.108  54.8755
  9053.473  9053.460  0.500  1.102096  117.884  165.821  55.0815
  9069.001  9068.990  0.500  1.097078  117.483  165.539  55.2643
  9084.701  9084.690  0.500  1.092578  117.052  165.214  55.4046
  9100.575  9100.560  0.500  1.088279  116.723  165.026  55.5801
  9116.631  9116.610  0.500  1.082492  116.308  164.715  55.7973
  9132.831  9132.820  0.500  1.076712  115.878  164.399  56.013
  9149.235  9149.210  0.500  1.070960  115.553  164.23  56.2783
  9165.771  9165.770  0.500  1.065753  115.037  163.74  56.4033
  9182.522  9182.500  0.500  1.060919  111.001  158.31  54.7971
  9199.416  9199.400  0.500  1.055811  114.267  163.27  56.8033
  9210.785  9210.760  0.500  1.052160  113.945  162.985  56.9115