File: xdidata/W/W-L1-TungstenOxide.xdi
# XDI/1.0 BlueSky/1.10.0 BMM/2023-1.0-py310-tiled
# Beamline.name: BMM (06BM) -- Beamline for Materials Measurement (NIST)
# Beamline.xray_source: NSLS-II three-pole wiggler
# Beamline.collimation: paraboloid mirror, 5 nm Rh on 30 nm Pt
# Beamline.focusing: not in use
# Beamline.harmonic_rejection: flat mirror, Pt stripe, pitch = 7.0 mrad relative to beam
# Beamline.software: Bluesky 1.10.0, Ophyd 1.7.0, DataBroker 2.0.0b13, Python 3.10.8, 2023-1.0-py310-tiled
# Detector.I0: 10 cm N2
# Detector.I1: 25 cm N2
# Detector.I2: 25 cm N2
# Element.symbol: W
# Element.edge: L1
# Element.reference: W
# Element.reference_material: WO3
# Facility.name: NSLS-II
# Facility.energy: 3.0
# Facility.current: 400.0
# Facility.mode: top-off
# Facility.GUP: 301027
# Facility.SAF: 310583
# Facility.cycle: 2023-2
# Mono.name: Si(111)
# Mono.d_spacing: 3.13519
# Mono.encoder_resolution: 0.0000050 deg/ct
# Mono.angle_offset: 16.0754 deg
# Mono.scan_mode: pseudo channel cut
# Mono.scan_type: step
# Mono.direction: forward in energy
# Sample.name: WO3
# Sample.prep: PEG pellet
# Sample.x: 109.138 mm
# Sample.y: 153.150 mm
# Sample.SDD_position: 205.000 mm
# Scan.experimenters: Bruce Ravel
# Scan.edge_energy: 12099.8
# Scan.start_time: 2023-05-28T19:41:00
# Scan.end_time: 2023-05-28T19:49:14
# Scan.transient_id: 78959
# Scan.uid: 97b25d8f-3407-4821-80cd-958244b8479e
# Scan.plot_hint: ln(It/Ir)  --  ln($6/$7)
# Column.1: energy eV
# Column.2: requested_energy eV
# Column.3: measurement_time seconds
# Column.4: xmu
# Column.5: I0 nA
# Column.6: It nA
# Column.7: Ir nA
# ///////////
# sample courtesy Martin Stennett, University of Sheffield
# -----------
# energy  requested_energy  measurement_time  xmu  I0  It  Ir
  11899.772  11899.800  0.500  1.342525  60.9573  103.135  26.9374
  11929.855  11929.800  0.500  1.337057  60.7059  102.823  27.0033
  11959.812  11959.800  0.500  1.331968  60.2899  102.216  26.9806
  11989.823  11989.800  0.500  1.326899  59.9092  101.679  26.9752
  12019.835  12019.800  0.500  1.321643  59.5311  101.146  26.9753
  12049.830  12049.800  0.500  1.316403  58.8458  100.078  26.8308
  12071.768  12071.800  0.500  1.313219  58.8613  100.195  26.9478
  12077.760  12077.800  0.500  1.312410  58.7733  100.05  26.9306
  12083.771  12083.800  0.500  1.311915  58.7081  99.9579  26.919
  12089.782  12089.800  0.500  1.311636  58.619  99.8259  26.891
  12090.648  12090.700  0.500  1.311674  58.5598  99.7244  26.8626
  12091.552  12091.600  0.500  1.311732  58.3961  99.4598  26.7898
  12092.449  12092.500  0.500  1.311921  58.4029  99.4784  26.7897
  12093.366  12093.400  0.500  1.311979  58.5203  99.6713  26.8401
  12094.277  12094.300  0.500  1.312211  58.5459  99.7165  26.8461
  12095.187  12095.200  0.500  1.312482  58.5419  99.7178  26.8391
  12096.098  12096.100  0.500  1.312723  58.5144  99.6705  26.82
  12096.997  12097.000  0.500  1.313146  58.486  99.6227  26.7958
  12097.895  12097.900  0.500  1.313769  58.4881  99.6314  26.7814
  12098.794  12098.800  0.500  1.314756  58.4709  99.611  26.7495
  12099.705  12099.700  0.500  1.315728  58.4522  99.5819  26.7157
  12100.579  12100.600  0.500  1.317275  58.6273  99.8688  26.7513
  12101.497  12101.500  0.500  1.319328  58.6116  99.8555  26.6929
  12102.377  12102.400  0.500  1.321714  58.6058  99.854  26.6288
  12103.289  12103.300  0.500  1.324298  58.5746  99.8048  26.547
  12104.207  12104.200  0.500  1.326972  58.5972  99.8428  26.4862
  12105.094  12105.100  0.500  1.329414  58.5546  99.7777  26.4044
  12106.000  12106.000  0.500  1.331714  58.533  99.739  26.3335
  12106.906  12106.900  0.500  1.333430  58.5249  99.7216  26.2838
  12107.787  12107.800  0.500  1.334196  58.5107  99.7098  26.2606
  12108.687  12108.700  0.500  1.334199  58.4987  99.6853  26.254
  12109.581  12109.600  0.500  1.334331  58.477  99.6538  26.2423
  12110.494  12110.500  0.500  1.334572  58.4872  99.6651  26.2389
  12111.414  12111.400  0.500  1.335350  58.4683  99.633  26.21
  12112.302  12112.300  0.500  1.336659  58.4273  99.5829  26.1626
  12113.222  12113.200  0.500  1.338770  58.421  99.5699  26.104
  12114.097  12114.100  0.500  1.341718  58.4233  99.5663  26.0263
  12114.992  12115.000  0.500  1.345535  58.4091  99.5564  25.9245
  12115.899  12115.900  0.500  1.350124  58.3832  99.5146  25.795
  12116.788  12116.800  0.500  1.355085  58.3653  99.4932  25.6618
  12117.702  12117.700  0.500  1.360220  58.3521  99.473  25.5252
  12118.597  12118.600  0.500  1.364669  58.3329  99.4486  25.4057
  12119.512  12119.500  0.500  1.368098  58.3178  99.4169  25.3106
  12120.407  12120.400  0.500  1.370310  58.3093  99.4116  25.2534
  12121.303  12121.300  0.500  1.371131  58.2878  99.3695  25.2219
  12122.205  12122.200  0.500  1.371180  58.274  99.3521  25.2163
  12123.082  12123.100  0.500  1.370902  58.2559  99.3216  25.2155
  12123.997  12124.000  0.500  1.370556  58.2615  99.321  25.2241
  12124.797  12124.800  0.500  1.370539  58.2402  99.3042  25.2203
  12127.794  12127.810  0.500  1.370882  58.1161  99.108  25.1618
  12130.984  12131.000  0.500  1.371951  58.1548  99.1807  25.1534
  12134.298  12134.360  0.500  1.373360  58.1008  99.0916  25.0954
  12137.876  12137.880  0.500  1.374378  58.0176  98.9656  25.038
  12141.579  12141.580  0.500  1.372146  57.9761  98.909  25.0796
  12145.438  12145.450  0.500  1.366991  57.9238  98.8309  25.1893
  12149.512  12149.500  0.500  1.362512  57.863  98.7477  25.2811
  12153.711  12153.710  0.500  1.360077  57.8015  98.6468  25.3168
  12158.080  12158.090  0.500  1.358991  57.7369  98.5585  25.3216
  12162.646  12162.650  0.500  1.357639  57.4701  98.1108  25.2407
  12167.370  12167.380  0.500  1.355363  57.6307  98.3933  25.3711
  12172.297  12172.280  0.500  1.353518  57.5528  98.2763  25.3877
  12177.358  12177.350  0.500  1.352777  57.4862  98.1903  25.3843
  12182.578  12182.590  0.500  1.352200  57.4142  98.0843  25.3715
  12188.022  12188.010  0.500  1.352004  57.3598  98.003  25.3555
  12193.582  12193.590  0.500  1.352035  57.2679  97.8722  25.3208
  12199.367  12199.350  0.500  1.352001  57.1439  97.6617  25.2672
  12205.281  12205.280  0.500  1.351795  57.1524  97.6986  25.282
  12211.389  12211.380  0.500  1.350955  57.1611  97.74  25.314
  12217.666  12217.650  0.500  1.349537  57.0869  97.6346  25.3225
  12224.099  12224.090  0.500  1.348310  57.0085  97.5199  25.3239
  12230.702  12230.700  0.500  1.347574  56.9235  97.4057  25.3128
  12237.488  12237.490  0.500  1.346910  56.5503  96.7779  25.1664
  12244.471  12244.450  0.500  1.345463  56.7137  97.0771  25.2807
  12251.586  12251.570  0.500  1.343906  56.6261  96.9484  25.2866
  12258.880  12258.870  0.500  1.342094  56.5205  96.79  25.291
  12266.360  12266.350  0.500  1.340195  56.2121  96.2887  25.2079
  12274.013  12273.990  0.500  1.338291  56.3586  96.5594  25.3269
  12281.807  12281.800  0.500  1.337024  56.2228  96.3437  25.3024
  12289.782  12289.790  0.500  1.335742  55.1282  94.4951  24.8487
  12297.939  12297.950  0.500  1.334360  55.959  95.9451  25.2649
  12306.292  12306.270  0.500  1.332882  55.9086  95.8788  25.2848
  12314.802  12314.770  0.500  1.331397  55.8079  95.7486  25.288
  12323.475  12323.450  0.500  1.329862  55.5093  95.2433  25.1932
  12332.300  12332.290  0.500  1.328412  55.5671  95.3741  25.2644
  12341.318  12341.300  0.500  1.327156  55.4511  95.2008  25.2502
  12350.488  12350.490  0.500  1.326096  55.2902  94.9531  25.2112
  12359.831  12359.850  0.500  1.324534  55.2309  94.8802  25.2312
  12369.369  12369.370  0.500  1.322668  55.1153  94.7108  25.2332
  12379.055  12379.070  0.500  1.320655  54.9891  94.5271  25.235
  12388.938  12388.950  0.500  1.318866  54.8871  94.3743  25.2393
  12399.003  12398.990  0.500  1.317175  54.7374  94.1502  25.222
  12409.193  12409.200  0.500  1.315429  54.5957  93.9238  25.2053
  12419.581  12419.590  0.500  1.313484  54.4794  93.7631  25.2112
  12430.148  12430.150  0.500  1.311502  54.3119  93.5111  25.1933
  12440.916  12440.880  0.500  1.309625  54.2295  93.3959  25.2095
  12451.797  12451.780  0.500  1.307679  54.0345  93.0882  25.1754
  12462.873  12462.850  0.500  1.306021  53.9594  92.9849  25.1892
  12474.099  12474.090  0.500  1.304215  53.8055  92.7487  25.1706
  12485.541  12485.510  0.500  1.302186  53.2101  91.7455  24.949
  12497.101  12497.090  0.500  1.300148  53.5329  92.343  25.1627
  12508.852  12508.850  0.500  1.298209  53.3785  92.1055  25.1467
  12520.803  12520.780  0.500  1.296097  53.2342  91.899  25.1434
  12532.894  12532.880  0.500  1.294123  53.0796  91.6603  25.1276
  12545.194  12545.150  0.500  1.292105  52.9448  91.4592  25.1231
  12557.615  12557.590  0.500  1.289726  52.7847  91.2156  25.1159
  12570.239  12570.210  0.500  1.287541  52.6222  90.9649  25.1016
  12583.007  12582.990  0.500  1.285420  52.4686  90.7393  25.0926
  12595.974  12595.950  0.500  1.283222  52.3104  90.4965  25.0804
  12609.106  12609.080  0.500  1.281061  52.1615  90.2722  25.0724
  12622.440  12622.380  0.500  1.278827  51.9637  89.9651  25.043
  12635.816  12635.850  0.500  1.276593  51.8261  89.7562  25.0407
  12649.486  12649.500  0.500  1.274473  51.6512  89.4957  25.0211
  12663.298  12663.310  0.500  1.272139  51.5004  89.2639  25.0146
  12677.309  12677.300  0.500  1.269888  51.3321  89.0102  24.9997
  12691.484  12691.460  0.500  1.267526  51.1578  88.7454  24.9842
  12705.790  12705.790  0.500  1.265301  50.9785  88.4708  24.9624
  12720.306  12720.290  0.500  1.262942  50.8084  88.1966  24.9438
  12734.975  12734.960  0.500  1.260381  50.5746  87.836  24.9055
  12749.827  12749.800  0.500  1.257973  50.4703  87.6809  24.9215
  12764.849  12764.820  0.500  1.255670  50.4658  87.715  24.9887
  12780.021  12780.000  0.500  1.253023  50.3157  87.4964  24.9925
  12795.387  12795.360  0.500  1.250532  50.1342  87.2061  24.9717
  12810.919  12810.890  0.500  1.248042  49.9524  86.935  24.9561
  12826.632  12826.590  0.500  1.245649  49.7075  86.543  24.9031
  12842.471  12842.460  0.500  1.243070  49.5642  86.3302  24.906
  12858.545  12858.510  0.500  1.240438  49.381  86.0428  24.8885
  12874.746  12874.720  0.500  1.238054  49.1266  85.6331  24.8291
  12891.162  12891.110  0.500  1.235409  48.9923  85.4393  24.8385
  12907.700  12907.670  0.500  1.232833  48.7917  85.126  24.8113
  12924.435  12924.400  0.500  1.230224  48.5921  84.8223  24.7874
  12941.330  12941.300  0.500  1.227738  48.1078  84.0062  24.61
  12952.706  12952.660  0.500  1.225836  48.0349  83.906  24.6274