File: xdidata/W/W-L3-metal.xdi
# XDI/1.0 BlueSky/1.5.3
# Beamline.name: 6BM
# Beamline.xray_source: NSLS-II three-pole wiggler
# Beamline.collimation: paraboloid mirror, 5 nm Rh on 30 nm Pt
# Beamline.focusing: not in use
# Beamline.harmonic_rejection: flat mirror, Pt stripe, pitch = 7.0 mrad relative to beam
# Detector.i0: 10 cm N2
# Detector.I1: 25 cm N2
# Detector.I2: 25 cm N2
# Element.symbol: W
# Element.edge: L3
# Facility.name: NSLS-II
# Facility.energy: 3.0
# Facility.current: 400.2
# Facility.mode: top-off
# Facility.GUP: 305832
# Facility.SAF: 305669
# Facility.cycle: 2020-1
# Mono.name: Si(111)
# Mono.d_spacing: 3.13532
# Mono.encoder_resolution: 0.0000050 deg/ct
# Mono.angle_offset: 16.0581 deg
# Mono.scan_mode: fixed exit
# Mono.scan_type: step
# Mono.direction: forward in energy
# Sample.name: W
# Sample.prep: X
# Sample.x_position: -7.603 mm
# Sample.y_position: 102.894 mm
# Scan.experimenters: Neil Hyatt, Martin Stennett, Dan Austin, Seb Lawson
# Scan.edge_energy: 10206.8
# Scan.start_time: 2020-03-07T06:29:04
# Scan.end_time: 2020-03-07T06:40:30
# Scan.transient_id: 23475
# Scan.uid: 345fc664-76d0-4446-b4da-d8e219ee986d
# Scan.plot_hint: ln(i0/itrans)  --  ln($5/$6)
# Column.1: energy eV
# Column.2: requested_energy eV
# Column.3: measurement_time seconds
# Column.4: mutrans
# Column.5: i0
# Column.6: itrans
# Column.7: irefer
# ///////////
#
# -----------
#  energy  requested_energy  measurement_time  mutrans  i0  itrans  irefer
10006.798  10006.800  1.000  0.354076  105.75  74.2176  19.654
10036.862  10036.800  1.000  0.346313  101.454  71.7573  19.1667
10066.847  10066.800  1.000  0.339374  103.642  73.8155  20.08
10096.835  10096.800  1.000  0.332408  102.516  73.5237  20.2596
10126.780  10126.800  1.000  0.325930  101.554  73.3074  20.4025
10156.794  10156.800  1.000  0.324096  100.373  72.588  20.4504
10178.775  10178.800  1.000  0.340034  99.5202  70.8331  20.149
10184.776  10184.800  1.000  0.357023  99.2921  69.4803  19.8094
10190.780  10190.800  1.000  0.396567  99.0174  66.6016  19.0366
10196.786  10196.800  1.000  0.519785  98.8082  58.7562  16.8282
10197.516  10197.550  1.000  0.552028  98.8073  56.8914  16.2985
10198.272  10198.300  1.000  0.594070  98.7812  54.5347  15.6253
10199.029  10199.050  1.000  0.646637  98.7259  51.7131  14.8193
10199.790  10199.800  1.000  0.713100  99.0152  48.5296  13.9115
10200.538  10200.550  1.000  0.800805  99.0179  44.4558  12.7487
10201.290  10201.300  1.000  0.921765  98.9875  39.3789  11.2953
10202.038  10202.050  1.000  1.089636  98.9158  33.2692  9.547460
10202.796  10202.800  1.000  1.325259  98.9143  26.2849  7.545931
10203.544  10203.550  1.000  1.644693  98.8686  19.0887  5.483667
10204.283  10204.300  1.000  2.038046  98.7971  12.8716  3.697535
10205.041  10205.050  1.000  2.488259  98.7483  8.201487  2.353549
10205.794  10205.800  1.000  2.903460  98.6911  5.411545  1.548511
10206.556  10206.550  1.000  3.169975  98.5992  4.141621  1.180930
10207.296  10207.300  1.000  3.216262  98.5306  3.951540  1.121727
10208.058  10208.050  1.000  3.084801  98.4364  4.502394  1.276659
10208.803  10208.800  1.000  2.870146  98.3613  5.576168  1.580782
10209.552  10209.550  1.000  2.632143  98.2889  7.069350  2.005935
10210.292  10210.300  1.000  2.413348  98.1769  8.788315  2.497879
10211.046  10211.050  1.000  2.227030  98.1475  10.585  3.013550
10211.796  10211.800  1.000  2.077814  98.0804  12.28  3.500564
10212.545  10212.550  1.000  1.966483  98.0258  13.7185  3.916325
10213.300  10213.300  1.000  1.882612  98.0166  14.9174  4.262722
10214.040  10214.050  1.000  1.823983  97.9041  15.7999  4.518034
10214.799  10214.800  1.000  1.780541  97.8781  16.4971  4.721558
10215.554  10215.550  1.000  1.748113  97.8259  17.0317  4.875694
10216.313  10216.300  1.000  1.720933  97.7497  17.4873  5.009602
10217.055  10217.050  1.000  1.696447  97.7267  17.9166  5.134795
10217.800  10217.800  1.000  1.672363  97.6834  18.3452  5.259418
10218.542  10218.550  1.000  1.646431  97.6735  18.8253  5.398288
10219.288  10219.300  1.000  1.618250  97.6494  19.3585  5.551968
10220.043  10220.050  1.000  1.588874  97.5816  19.9218  5.718481
10220.799  10220.800  1.000  1.560514  97.4875  20.4751  5.879886
10221.554  10221.550  1.000  1.534687  97.4923  21.0118  6.034517
10222.305  10222.300  1.000  1.511831  97.7953  21.5644  6.196556
10223.047  10223.050  1.000  1.492360  97.7522  21.9787  6.318345
10223.799  10223.800  1.000  1.475981  97.7647  22.3446  6.425263
10224.546  10224.550  1.000  1.462806  97.7945  22.6478  6.514333
10225.311  10225.300  1.000  1.450755  97.7189  22.9047  6.591105
10226.053  10226.050  1.000  1.437404  97.738  23.217  6.683106
10226.791  10226.800  1.000  1.423084  97.6251  23.5247  6.773849
10227.552  10227.550  1.000  1.407753  97.6136  23.8853  6.877899
10228.300  10228.300  1.000  1.393852  97.6525  24.2293  6.979275
10229.047  10229.050  1.000  1.382695  97.5732  24.4813  7.056164
10229.804  10229.800  1.000  1.374865  97.5637  24.6713  7.113082
10230.561  10230.550  1.000  1.370183  97.4408  24.7559  7.139748
10231.313  10231.300  1.000  1.368048  97.3627  24.7889  7.150563
10232.052  10232.050  1.000  1.367019  97.3447  24.8098  7.160959
10232.796  10232.800  1.000  1.366714  97.2486  24.7929  7.157356
10233.535  10233.550  1.000  1.365032  97.2948  24.8464  7.173864
10234.288  10234.300  1.000  1.361856  97.2838  24.9227  7.197724
10235.055  10235.050  1.000  1.356988  97.255  25.0368  7.230296
10235.803  10235.800  1.000  1.351377  97.27  25.1816  7.276928
10236.565  10236.550  1.000  1.345912  97.1797  25.2961  7.311386
10238.998  10238.980  1.000  1.336659  97.0617  25.5002  7.378471
10242.400  10242.380  1.000  1.337012  96.9776  25.4692  7.377060
10245.972  10245.960  1.000  1.316283  96.8539  25.9694  7.532865
10249.720  10249.710  1.000  1.282756  96.6755  26.8054  7.787568
10253.647  10253.630  1.000  1.290274  96.5094  26.5589  7.729348
10257.738  10257.730  1.000  1.326607  96.3749  25.5756  7.449945
10262.001  10261.990  1.000  1.346759  96.1635  25.0104  7.295045
10266.449  10266.430  1.000  1.334740  96.0342  25.2788  7.386377
10271.044  10271.040  1.000  1.322250  95.8354  25.5435  7.477883
10275.816  10275.810  1.000  1.319044  95.5989  25.5623  7.498136
10280.780  10280.770  1.000  1.330285  95.6854  25.2994  7.433433
10285.901  10285.890  1.000  1.342690  95.6127  24.9685  7.348319
10291.187  10291.180  1.000  1.325811  95.3766  25.3308  7.470604
10296.659  10296.640  1.000  1.299002  95.1703  25.9628  7.672561
10302.292  10302.280  1.000  1.300493  94.8876  25.8471  7.656022
10308.092  10308.090  1.000  1.305335  94.68  25.666  7.617560
10314.084  10314.070  1.000  1.304024  94.4147  25.6277  7.622043
10320.230  10320.220  1.000  1.312398  94.202  25.3567  7.558680
10326.551  10326.540  1.000  1.323739  93.9316  24.9988  7.469950
10333.059  10333.030  1.000  1.336441  93.6876  24.6191  7.371343
10339.701  10339.700  1.000  1.339804  93.4083  24.4633  7.339530
10346.551  10346.540  1.000  1.325601  93.0928  24.7295  7.437418
10353.545  10353.540  1.000  1.292862  92.8299  25.4803  7.682974
10360.734  10360.720  1.000  1.281356  92.5551  25.6989  7.767156
10368.083  10368.070  1.000  1.283073  92.2581  25.5725  7.747424
10375.592  10375.590  1.000  1.282220  91.9042  25.4961  7.744841
10383.303  10383.290  1.000  1.283386  91.5939  25.3804  7.726195
10391.147  10391.150  1.000  1.297255  91.2369  24.9333  7.612650
10399.206  10399.190  1.000  1.338944  90.9298  23.8347  7.298166
10407.403  10407.400  1.000  1.336719  90.6255  23.8079  7.301769
10415.797  10415.780  1.000  1.267015  90.253  25.4217  7.824975
10424.356  10424.330  1.000  1.250263  89.9378  25.7608  7.951684
10433.075  10433.050  1.000  1.258992  89.5631  25.4305  7.872468
10441.965  10441.940  1.000  1.262191  89.1421  25.2302  7.832996
10451.032  10451.010  1.000  1.275856  88.8116  24.7955  7.717494
10460.261  10460.250  1.000  1.276060  88.4259  24.6828  7.707959
10469.669  10469.650  1.000  1.284452  88.0737  24.379  7.635717
10479.246  10479.230  1.000  1.284414  87.6757  24.2697  7.625978
10489.008  10488.980  1.000  1.260758  87.2959  24.7431  7.798304
10498.932  10498.910  1.000  1.241458  86.895  25.1094  7.939600
10509.013  10509.000  1.000  1.232239  86.8425  25.3266  8.031451
10519.288  10519.270  1.000  1.240373  86.4122  24.997  7.953715
10529.726  10529.700  1.000  1.250139  85.9593  24.6243  7.859000
10540.326  10540.310  1.000  1.255082  85.5801  24.3948  7.809428
10551.107  10551.090  1.000  1.246178  85.1799  24.4979  7.870251
10562.060  10562.040  1.000  1.231242  84.8735  24.7771  7.985541
10573.186  10573.160  1.000  1.221237  84.3528  24.8727  8.042781
10584.473  10584.460  1.000  1.208862  83.7485  25.002  8.113772
10595.940  10595.920  1.000  1.212038  83.5588  24.8663  8.094884
10607.588  10607.560  1.000  1.211807  83.2043  24.7665  8.093374
10619.380  10619.370  1.000  1.211014  82.4245  24.5539  8.050760
10631.384  10631.350  1.000  1.205762  82.122  24.5926  8.092938
10643.530  10643.500  1.000  1.204353  81.612  24.4743  8.079294
10655.846  10655.820  1.000  1.193672  81.1286  24.5906  8.146602
10668.359  10668.320  1.000  1.182908  80.6401  24.7071  8.215904
10680.972  10680.980  1.000  1.174931  80.1599  24.7566  8.262413
10693.838  10693.820  1.000  1.168312  79.6511  24.7628  8.293302
10706.875  10706.830  1.000  1.167766  79.1614  24.624  8.277287
10720.039  10720.010  1.000  1.165940  78.756  24.5427  8.281631
10733.396  10733.360  1.000  1.160691  78.2589  24.5161  8.302852
10746.927  10746.880  1.000  1.156968  77.7432  24.4454  8.310882
10760.618  10760.580  1.000  1.148751  77.1806  24.4687  8.348971
10774.466  10774.440  1.000  1.150895  76.6182  24.2384  8.300239
10788.507  10788.480  1.000  1.132964  76.0732  24.5014  8.421282
10802.737  10802.690  1.000  1.115469  75.5429  24.7601  8.540913
10817.112  10817.070  1.000  1.111546  75.0992  24.7114  8.560536
10831.668  10831.620  1.000  1.116518  74.6199  24.4319  8.496197
10846.418  10846.340  1.000  1.122739  73.8629  24.034  8.387255
10861.285  10861.240  1.000  1.110811  73.6831  24.2632  8.499142
10876.368  10876.300  1.000  1.102098  73.313  24.3526  8.564404
10891.530  10891.540  1.000  1.097647  72.9253  24.3319  8.588873
10906.988  10906.950  1.000  1.082869  72.4615  24.5371  8.698010
10922.579  10922.530  1.000  1.067312  71.8296  24.7045  8.792638
10938.241  10938.280  1.000  1.060945  71.4653  24.7362  8.838359
10948.919  10948.880  1.000  1.060501  71.1566  24.6403  8.828251