File: xdidata/Cr/Cr-K-chromite.xdi
# XDI/1.0 BlueSky/1.5.3
# Beamline.name: 6BM
# Beamline.xray_source: NSLS-II three-pole wiggler
# Beamline.collimation: paraboloid mirror, 5 nm Rh on 30 nm Pt
# Beamline.focusing: not in use
# Beamline.harmonic_rejection: flat mirror, Si stripe, pitch = 7.0 mrad relative to beam
# Detector.i0: 10 cm N2
# Detector.i1: 25 cm N2
# Detector.i2: 25 cm N2
# Element.symbol: Cr
# Element.edge: K
# Facility.name: NSLS-II
# Facility.energy: 3.0
# Facility.current: 400.8
# Facility.mode: top-off
# Facility.gup: 305882
# Facility.saf: 305422
# Facility.cycle: 2020-1
# Mono.name: Si(111)
# Mono.d_spacing: 3.13532
# Mono.encoder_resolution: 0.0000050 deg/ct
# Mono.angle_offset: 16.0581 deg
# Mono.scan_mode: fixed exit
# Mono.scan_type: step
# Mono.direction: forward in energy
# Sample.name: FeCrO4
# Sample.prep: powder on tape 2x
# Sample.x_position: -74.438 mm
# Sample.y_position: 112.405 mm
# Scan.experimenters: Sarah Nicholas, Bruce Ravel
# Scan.edge_energy: 5989.0
# Scan.start_time: 2020-01-29T16:34:15
# Scan.end_time: 2020-01-30T00:23:43
# Scan.transient_id: 20496
# Scan.uid: c57f7b22-7156-491c-b46a-93e3ae364d4c
# Scan.plot_hint: ln(I0/It)  --  ln($5/$6)
# Scan.sequence: merge of 16 scans
# Column.1: energy eV
# Column.2: requested_energy eV
# Column.3: measurement_time seconds
# Column.4: mutrans
# Column.5: i0
# Column.6: itrans
# Column.7: irefer
# /////
#  Ryan Tappero, ground in AW M&P
# -----
# energy   requested_energy   measurement_time   mutrans   i0   itrans   irefer
5789 5789 0.500000 4.985929 47.6751 0.325838 0.057144
5819.02 5819 0.500000 4.903826 47.584 0.353035 0.063778
5849.01 5849 0.500000 4.821684 47.2901 0.380882 0.070737
5879.01 5879 0.500000 4.740727 47.4727 0.414590 0.079231
5909.01 5909 0.500000 4.662784 46.8031 0.441873 0.086336
5939.78 5939 0.500000 4.582980 46.3538 0.474842 0.095389
5960.99 5961 0.500000 4.528220 46.4575 0.501774 0.102669
5966.99 5967 0.500000 4.513090 46.2829 0.507512 0.104172
5973 5973 0.500000 4.498500 46.1301 0.513277 0.105633
5979 5979 0.500000 4.482268 45.9082 0.519157 0.107274
5979.74 5979.75 0.500000 4.481451 45.8593 0.519040 0.107699
5980.49 5980.5 0.500000 4.479757 45.8209 0.519485 0.107489
5981.24 5981.25 0.500000 4.477751 45.7689 0.519943 0.107827
5981.99 5982 0.500000 4.475230 45.7205 0.520698 0.107897
5982.74 5982.75 0.500000 4.474589 45.659 0.520330 0.107846
5983.49 5983.5 0.500000 4.472999 45.5981 0.520469 0.108057
5984.24 5984.25 0.500000 4.470034 45.5224 0.521140 0.108157
5985 5985 0.500000 4.468713 45.4393 0.520886 0.107936
5985.74 5985.75 0.500000 4.466953 45.319 0.520417 0.107982
5986.49 5986.5 0.500000 4.465876 45.2002 0.519611 0.107480
5987.25 5987.25 0.500000 4.463680 45.0239 0.518722 0.107129
5988 5988 0.500000 4.463059 44.7876 0.516323 0.106212
5988.74 5988.75 0.500000 4.460493 44.3606 0.512703 0.103675
5989.5 5989.5 0.500000 4.460747 43.6089 0.503890 0.098539
5990.25 5990.25 0.500000 4.461705 41.5463 0.479595 0.091209
5991 5991 0.500000 4.460894 35.8674 0.414372 0.077289
5991.74 5991.75 0.500000 4.456104 34.2653 0.397774 0.072727
5992.5 5992.5 0.500000 4.455042 43.8741 0.509869 0.092504
5993.25 5993.25 0.500000 4.455502 46.3604 0.538509 0.096544
5994 5994 0.500000 4.455687 46.4636 0.539614 0.096204
5994.75 5994.75 0.500000 4.455518 46.402 0.538983 0.095925
5995.5 5995.5 0.500000 4.456166 46.3142 0.537614 0.095707
5996.25 5996.25 0.500000 4.458277 46.2334 0.535552 0.095420
5997 5997 0.500000 4.461691 46.1612 0.532882 0.094662
5997.75 5997.75 0.500000 4.468526 46.0794 0.528297 0.091721
5998.5 5998.5 0.500000 4.477900 46.0109 0.522625 0.088465
5999.25 5999.25 0.500000 4.486285 45.9561 0.517639 0.085380
6000 6000 0.500000 4.494690 45.9126 0.512812 0.082935
6000.75 6000.75 0.500000 4.505575 45.8762 0.506825 0.080980
6001.5 6001.5 0.500000 4.519952 45.8341 0.499201 0.078339
6002.25 6002.25 0.500000 4.535421 45.7952 0.491106 0.076262
6003 6003 0.500000 4.547370 45.7738 0.485011 0.074420
6003.75 6003.75 0.500000 4.553885 45.7263 0.481376 0.072967
6004.5 6004.5 0.500000 4.559574 45.72 0.478574 0.072279
6005.25 6005.25 0.500000 4.565038 45.7089 0.475842 0.070890
6006 6006 0.500000 4.575319 45.7049 0.470948 0.069389
6006.75 6006.75 0.500000 4.600547 45.6616 0.458819 0.067059
6007.5 6007.5 0.500000 4.637543 45.6532 0.442047 0.064308
6008.25 6008.25 0.500000 4.677034 45.6303 0.424700 0.060821
6009 6009 0.500000 4.696614 45.6122 0.416301 0.058982
6009.75 6009.75 0.500000 4.690782 45.5813 0.418442 0.058907
6010.5 6010.5 0.500000 4.666403 45.5663 0.428645 0.061014
6011.25 6011.25 0.500000 4.634486 45.5354 0.442219 0.064088
6012 6012 0.500000 4.607195 45.5122 0.454222 0.066703
6012.76 6012.75 0.500000 4.586286 45.4754 0.463501 0.069266
6013.5 6013.5 0.500000 4.572938 45.4583 0.469514 0.070794
6015.01 6014.99 0.500000 4.556889 45.4122 0.476632 0.072216
6018.06 6018.06 0.500000 4.559495 45.3036 0.474237 0.070478
6021.31 6021.3 0.500000 4.573316 45.2113 0.466784 0.069235
6024.71 6024.71 0.500000 4.554778 45.127 0.474622 0.071050
6028.31 6028.3 0.500000 4.517345 45.0299 0.491686 0.072233
6032.06 6032.05 0.500000 4.490135 44.9274 0.504086 0.073805
6035.99 6035.98 0.500000 4.472552 44.8338 0.511957 0.074708
6040.09 6040.08 0.500000 4.463031 44.7087 0.515415 0.074859
6044.36 6044.35 0.500000 4.459468 44.6168 0.516188 0.075915
6048.8 6048.79 0.500000 4.459407 44.4948 0.514807 0.076916
6053.42 6053.41 0.500000 4.454776 44.3357 0.515354 0.079001
6058.2 6058.19 0.500000 4.450300 44.1294 0.515250 0.080408
6063.16 6063.15 0.500000 4.447437 43.9047 0.514096 0.080279
6068.29 6068.28 0.500000 4.433825 43.7566 0.519385 0.079248
6073.59 6073.58 0.500000 4.417375 43.5798 0.525870 0.080022
6079.06 6079.05 0.500000 4.403416 43.401 0.531075 0.083274
6084.7 6084.69 0.500000 4.385129 43.1833 0.538167 0.087222
6090.52 6090.51 0.500000 4.369161 42.9719 0.544142 0.085664
6096.5 6096.49 0.500000 4.352619 42.7353 0.550174 0.082833
6102.66 6102.65 0.500000 4.336546 42.4833 0.555793 0.083995
6108.99 6108.98 0.500000 4.321849 42.2215 0.560542 0.089198
6115.49 6115.48 0.500000 4.305268 41.919 0.565835 0.092623
6122.16 6122.15 0.500000 4.286337 41.6074 0.572363 0.093674
6129 6128.99 0.500000 4.268349 41.2597 0.577882 0.095598
6136.01 6136 0.500000 4.256856 40.8896 0.579313 0.096978
6143.2 6143.19 0.500000 4.244218 40.4768 0.580767 0.097083
6150.56 6150.55 0.500000 4.230458 39.9808 0.581596 0.096401
6158.08 6158.07 0.500000 4.213803 39.1461 0.579023 0.095663
6165.77 6165.77 0.500000 4.197106 36.4331 0.547959 0.088985
6173.66 6173.65 0.500000 4.175027 38.9245 0.598506 0.099973
6181.7 6181.69 0.500000 4.152471 38.2501 0.601558 0.103333
6189.91 6189.9 0.500000 4.129614 37.5939 0.604902 0.104919
6198.29 6198.29 0.500000 4.110967 36.9074 0.605031 0.105994
6206.86 6206.85 0.500000 4.093218 36.1704 0.603578 0.107271
6215.58 6215.57 0.500000 4.074200 35.4021 0.602098 0.108604
6224.47 6224.47 0.500000 4.055168 34.5918 0.599625 0.107724
6233.55 6233.55 0.500000 4.035077 33.7282 0.596524 0.106190
6242.79 6242.79 0.500000 4.014164 32.8459 0.593198 0.104515
6252.2 6252.2 0.500000 3.993590 31.9189 0.588445 0.105403
6261.79 6261.79 0.500000 3.972519 30.9726 0.583159 0.107444
6271.55 6271.55 0.500000 3.950850 30.0019 0.577261 0.107449
6281.47 6281.47 0.500000 3.930100 29.0256 0.570189 0.107233
6291.57 6291.57 0.500000 3.908339 28.0285 0.562723 0.106528
6301.85 6301.85 0.500000 3.886007 27.0465 0.555271 0.106307
6312.29 6312.29 0.500000 3.863862 26.0711 0.547235 0.105519
6322.91 6322.9 0.500000 3.840110 25.0929 0.539369 0.103694
6333.69 6333.69 0.500000 3.817761 24.1496 0.530821 0.102515
6344.66 6344.65 0.500000 3.794981 23.213 0.521995 0.101778
6355.78 6355.78 0.500000 3.771714 22.3122 0.513548 0.101209
6367.09 6367.08 0.500000 3.749631 21.4339 0.504356 0.101146
6378.56 6378.55 0.500000 3.727422 20.5856 0.495264 0.100276
6390.19 6390.19 0.500000 3.705021 19.7627 0.486238 0.099355
6402.02 6402.01 0.500000 3.681732 18.973 0.477813 0.098291
6413.99 6413.99 0.500000 3.657716 18.2277 0.470188 0.097270
6426.16 6426.15 0.500000 3.634012 17.5106 0.462531 0.096681
6438.5 6438.48 0.500000 3.609667 16.8223 0.455311 0.095472
6450.99 6450.98 0.500000 3.585430 16.1872 0.448859 0.095264
6463.64 6463.65 0.500000 3.561169 15.4584 0.439156 0.093987
6476.5 6476.49 0.500000 3.537797 15.0014 0.436265 0.094435
6489.49 6489.51 0.500000 3.513249 14.4693 0.431221 0.094264
6502.67 6502.7 0.500000 3.488982 13.9683 0.426512 0.093986
6516.06 6516.05 0.500000 3.465169 13.4993 0.422145 0.094062
6529.57 6529.58 0.500000 3.440336 13.0625 0.418734 0.093936
6543.25 6543.28 0.500000 3.415524 12.6393 0.415349 0.094239
6557.2 6557.16 0.500000 3.390482 12.2354 0.412317 0.094190
6571.17 6571.2 0.500000 3.366008 11.8644 0.409667 0.094424
6585.39 6585.41 0.500000 3.340753 11.5152 0.407782 0.095192
6599.78 6599.8 0.500000 3.315079 11.1835 0.406339 0.095700
6614.34 6614.36 0.500000 3.289410 10.8625 0.404937 0.096372
6629.07 6629.09 0.500000 3.264164 10.5533 0.403476 0.096925
6643.97 6643.99 0.500000 3.238996 10.2648 0.402452 0.097496
6659.04 6659.06 0.500000 3.214103 9.983805 0.401295 0.097996
6674.27 6674.3 0.500000 3.186949 9.705830 0.400851 0.098788
6689.7 6689.72 0.500000 3.161755 9.434048 0.399568 0.099266
6705.3 6705.31 0.500000 3.136578 9.169994 0.398297 0.100177
6721.04 6721.06 0.500000 3.110311 8.913095 0.397442 0.100606
6736.97 6736.99 0.500000 3.085592 8.658794 0.395768 0.101612
6753.08 6753.09 0.500000 3.059095 8.411472 0.394784 0.102045
6769.34 6769.37 0.500000 3.033193 8.162487 0.393142 0.102726
6785.78 6785.81 0.500000 3.007377 7.925569 0.391719 0.103247
6802.39 6802.42 0.500000 2.981201 7.707797 0.391060 0.104095
6819.19 6819.21 0.500000 2.954709 7.458658 0.388577 0.104410
6836.18 6836.17 0.500000 2.928895 7.325077 0.391617 0.106115
6841.84 6841.86 0.500000 2.920512 7.116824 0.383666 0.104187