File: xdidata/Cr/Cr-K-CrO3.xdi
# XDI/1.0 BlueSky/1.5.3
# Beamline.name: 6BM
# Beamline.xray_source: NSLS-II three-pole wiggler
# Beamline.collimation: paraboloid mirror, 5 nm Rh on 30 nm Pt
# Beamline.focusing: not in use
# Beamline.harmonic_rejection: flat mirror, Si stripe, pitch = 7.0 mrad relative to beam
# Detector.i0: 10 cm N2
# Detector.i1: 25 cm N2
# Detector.i2: 25 cm N2
# Element.symbol: Cr
# Element.edge: K
# Facility.name: NSLS-II
# Facility.energy: 3.0
# Facility.current: 399.5
# Facility.mode: top-off
# Facility.gup: 305882
# Facility.saf: 305422
# Facility.cycle: 2020-1
# Mono.name: Si(111)
# Mono.d_spacing: 3.13532
# Mono.encoder_resolution: 0.0000050 deg/ct
# Mono.angle_offset: 16.0581 deg
# Mono.scan_mode: fixed exit
# Mono.scan_type: step
# Mono.direction: forward in energy
# Sample.name: CrO3
# Sample.prep: powder on tape 2x
# Sample.x_position: -74.438 mm
# Sample.y_position: 112.405 mm
# Scan.experimenters: Sarah Nicholas, Bruce Ravel
# Scan.edge_energy: 5989.0
# Scan.start_time: 2020-01-30T04:05:39
# Scan.end_time: 2020-01-30T06:21:35
# Scan.transient_id: 20574
# Scan.uid: f596814b-f7ea-4277-940d-597cfe298a50
# Scan.plot_hint: ln(I0/It)  --  ln($5/$6)
# Scan.sequence: merge of 16 scans
# Column.1: energy eV
# Column.2: requested_energy eV
# Column.3: measurement_time seconds
# Column.4: mutrans
# Column.5: i0
# Column.6: itrans
# Column.7: irefer
# /////
#  Sigma, ground in AW M&P
# -----
# energy   requested_energy   measurement_time   mutrans   i0   itrans   irefer
5789 5789 0.500000 3.184599 47.649 1.972487 0.351959
5819.01 5819 0.500000 3.127633 47.5443 2.083448 0.381171
5849.01 5849 0.500000 3.070802 47.2566 2.191949 0.411443
5879.01 5879 0.500000 3.015377 47.474 2.327515 0.448494
5909 5909 0.500000 2.960913 46.8114 2.423491 0.478807
5938.99 5939 0.500000 2.907792 46.3618 2.531147 0.512407
5961 5961 0.500000 2.869911 46.4957 2.636493 0.542774
5966.99 5967 0.500000 2.859915 46.3309 2.653528 0.548905
5973 5973 0.500000 2.850179 46.1611 2.669678 0.554269
5978.99 5979 0.500000 2.841136 45.9358 2.680768 0.558908
5979.74 5979.75 0.500000 2.840138 45.8921 2.680908 0.559358
5980.49 5980.5 0.500000 2.839309 45.8529 2.680839 0.559245
5981.24 5981.25 0.500000 2.838259 45.8216 2.681828 0.559543
5981.99 5982 0.500000 2.837528 45.7718 2.680862 0.559668
5982.74 5982.75 0.500000 2.836695 45.7241 2.680305 0.559467
5983.49 5983.5 0.500000 2.835962 45.6694 2.679066 0.559388
5984.25 5984.25 0.500000 2.835272 45.6115 2.677513 0.559095
5984.99 5985 0.500000 2.835042 45.5249 2.673046 0.558274
5985.74 5985.75 0.500000 2.834880 45.4383 2.668390 0.557027
5986.5 5986.5 0.500000 2.835156 45.3067 2.659932 0.554560
5987.25 5987.25 0.500000 2.835666 45.1333 2.648393 0.550771
5987.99 5988 0.500000 2.837234 44.882 2.629545 0.544698
5988.75 5988.75 0.500000 2.840368 44.4601 2.596650 0.530379
5989.5 5989.5 0.500000 2.846714 43.7128 2.536863 0.500797
5990.25 5990.25 0.500000 2.861300 41.7449 2.387713 0.459261
5991 5991 0.500000 2.902658 36.1614 1.984865 0.374312
5991.75 5991.75 0.500000 2.996313 34.1977 1.708174 0.316299
5992.5 5992.5 0.500000 3.081037 43.7231 2.007036 0.366901
5993.25 5993.25 0.500000 3.246346 46.4166 1.807343 0.327162
5994 5994 0.500000 3.261870 46.5529 1.785024 0.320535
5994.75 5994.75 0.500000 3.115291 46.4888 2.063561 0.370187
5995.49 5995.5 0.500000 3.004334 46.4052 2.299118 0.413093
5996.25 5996.25 0.500000 2.947038 46.3152 2.431170 0.437017
5997 5997 0.500000 2.912327 46.2455 2.513655 0.448704
5997.75 5997.75 0.500000 2.896124 46.167 2.549929 0.446897
5998.5 5998.5 0.500000 2.892705 46.1158 2.556015 0.437760
5999.25 5999.25 0.500000 2.899935 46.0661 2.534698 0.424115
6000 6000 0.500000 2.915085 46.0229 2.494447 0.408454
6000.75 6000.75 0.500000 2.934904 45.9859 2.443778 0.393118
6001.5 6001.5 0.500000 2.955844 45.9509 2.390807 0.379490
6002.25 6002.25 0.500000 2.978431 45.9241 2.336178 0.366267
6003 6003 0.500000 3.001465 45.9034 2.282312 0.354029
6003.75 6003.75 0.500000 3.026331 45.875 2.224621 0.341700
6004.5 6004.5 0.500000 3.051071 45.8398 2.168335 0.330180
6005.25 6005.25 0.500000 3.075558 45.8248 2.115644 0.318959
6006 6006 0.500000 3.100836 45.7999 2.061712 0.307807
6006.76 6006.75 0.500000 3.132915 45.7711 1.994752 0.294955
6007.5 6007.5 0.500000 3.174730 45.7469 1.912199 0.280219
6008.24 6008.25 0.500000 3.221099 45.7239 1.825743 0.264117
6009 6009 0.500000 3.254754 45.6966 1.763312 0.252644
6009.75 6009.75 0.500000 3.272712 45.6641 1.730737 0.247753
6010.5 6010.5 0.500000 3.282512 45.6456 1.713340 0.247421
6011.25 6011.25 0.500000 3.297587 45.6169 1.686594 0.247285
6012 6012 0.500000 3.317627 45.5917 1.652094 0.246375
6012.75 6012.75 0.500000 3.339126 45.5645 1.616156 0.244326
6013.5 6013.5 0.500000 3.357382 45.5489 1.586302 0.242034
6015.01 6014.99 0.500000 3.384753 45.5098 1.542114 0.236106
6018.06 6018.06 0.500000 3.396539 45.4336 1.521508 0.227824
6021.31 6021.3 0.500000 3.372403 45.3515 1.555902 0.233094
6024.72 6024.71 0.500000 3.375457 45.26 1.547981 0.233380
6028.3 6028.3 0.500000 3.410521 45.1711 1.491767 0.221152
6032.06 6032.05 0.500000 3.420547 45.0737 1.473668 0.217392
6035.99 6035.98 0.500000 3.404359 44.9651 1.494118 0.219967
6040.09 6040.08 0.500000 3.383842 44.8624 1.521560 0.222660
6044.36 6044.35 0.500000 3.359511 44.7574 1.555447 0.230518
6048.8 6048.79 0.500000 3.331365 44.6299 1.595284 0.239766
6053.42 6053.41 0.500000 3.296934 44.4688 1.645226 0.254472
6058.2 6058.19 0.500000 3.269317 44.2634 1.683450 0.265127
6063.15 6063.15 0.500000 3.252372 44.0438 1.703707 0.268982
6068.28 6068.28 0.500000 3.240052 43.8777 1.718329 0.265257
6073.59 6073.58 0.500000 3.231570 43.7053 1.726157 0.265223
6079.06 6079.05 0.500000 3.225979 43.5223 1.728570 0.273890
6084.7 6084.69 0.500000 3.222749 43.319 1.726065 0.281172
6090.52 6090.51 0.500000 3.215677 43.0995 1.729505 0.274710
6096.5 6096.49 0.500000 3.208022 42.8568 1.732983 0.263468
6102.65 6102.65 0.500000 3.204091 42.6044 1.729555 0.262786
6108.99 6108.98 0.500000 3.200727 42.3402 1.724635 0.275972
6115.49 6115.48 0.500000 3.194056 42.0365 1.723720 0.284589
6122.16 6122.15 0.500000 3.183464 41.7167 1.728811 0.284774
6129 6128.99 0.500000 3.169136 41.3722 1.739295 0.290018
6136 6136 0.500000 3.153513 40.9996 1.750741 0.295010
6143.2 6143.19 0.500000 3.137197 40.5567 1.760343 0.296513
6150.56 6150.55 0.500000 3.121302 40.058 1.766555 0.295325
6158.07 6158.07 0.500000 3.105247 39.1919 1.756311 0.292307
6165.78 6165.77 0.500000 3.089181 36.5276 1.663440 0.272342
6173.66 6173.65 0.500000 3.073043 38.8909 1.799875 0.302214
6181.7 6181.69 0.500000 3.057515 38.2054 1.795819 0.309769
6189.9 6189.9 0.500000 3.042811 37.5062 1.789064 0.312497
6198.29 6198.29 0.500000 3.028090 36.7916 1.781004 0.314217
6206.86 6206.85 0.500000 3.013443 36.0139 1.769090 0.315708
6215.58 6215.57 0.500000 2.999108 35.2176 1.754948 0.317701
6224.47 6224.47 0.500000 2.984864 34.3656 1.737057 0.313519
6233.55 6233.55 0.500000 2.970055 33.4713 1.717084 0.306856
6242.8 6242.79 0.500000 2.954511 32.5557 1.696282 0.300717
6252.2 6252.2 0.500000 2.938570 31.611 1.673521 0.301976
6261.8 6261.79 0.500000 2.922715 30.6327 1.647662 0.306438
6271.56 6271.55 0.500000 2.906628 29.6382 1.620025 0.303359
6281.47 6281.47 0.500000 2.890196 28.6399 1.591382 0.300734
6291.58 6291.57 0.500000 2.873502 27.6399 1.561677 0.296570
6301.85 6301.85 0.500000 2.856966 26.6453 1.530583 0.294575
6312.29 6312.29 0.500000 2.840122 25.6594 1.498979 0.290612
6322.91 6322.9 0.500000 2.823029 24.691 1.467283 0.284137
6333.69 6333.69 0.500000 2.805421 23.751 1.436481 0.278929
6344.66 6344.65 0.500000 2.787828 22.8213 1.404759 0.275510
6355.78 6355.78 0.500000 2.770064 21.9373 1.374548 0.273066
6367.09 6367.08 0.500000 2.752688 21.0676 1.343187 0.270968
6378.56 6378.55 0.500000 2.735383 20.2442 1.313220 0.267278
6390.19 6390.19 0.500000 2.717353 19.4435 1.284230 0.263569
6402.02 6402.01 0.500000 2.700026 18.6763 1.255115 0.259629
6414 6413.99 0.500000 2.681705 17.9572 1.229108 0.256112
6426.16 6426.15 0.500000 2.663684 17.274 1.203846 0.253201
6438.49 6438.48 0.500000 2.646004 16.6085 1.178112 0.248846
6451 6450.98 0.500000 2.627812 16.0082 1.156379 0.246568
6463.66 6463.65 0.500000 2.610109 15.3208 1.126485 0.243429
6476.5 6476.49 0.500000 2.591831 14.8838 1.114542 0.242736
6489.52 6489.51 0.500000 2.573542 14.3815 1.096803 0.241344
6502.73 6502.7 0.500000 2.554697 13.9123 1.081221 0.239596
6516.06 6516.05 0.500000 2.536108 13.4629 1.065902 0.238600
6529.56 6529.58 0.500000 2.517289 13.0502 1.052820 0.237978
6543.32 6543.28 0.500000 2.498161 12.6434 1.039785 0.237167
6557.14 6557.16 0.500000 2.478784 12.2582 1.027742 0.236050
6571.18 6571.2 0.500000 2.459817 11.8958 1.016468 0.236007
6585.39 6585.41 0.500000 2.441169 11.5557 1.005979 0.235604
6599.8 6599.8 0.500000 2.421456 11.2268 0.996844 0.235731
6614.37 6614.36 0.500000 2.401993 10.9086 0.987648 0.235934
6629.07 6629.09 0.500000 2.383443 10.5974 0.977427 0.235481
6643.97 6643.99 0.500000 2.364624 10.3045 0.968461 0.235601
6659.04 6659.06 0.500000 2.345910 10.0273 0.960296 0.236112
6674.28 6674.3 0.500000 2.326208 9.741394 0.951382 0.236104
6689.72 6689.72 0.500000 2.307446 9.469914 0.942422 0.235995
6705.29 6705.31 0.500000 2.288039 9.199417 0.933415 0.235499
6721.03 6721.06 0.500000 2.268396 8.937151 0.924795 0.235988
6736.96 6736.99 0.500000 2.248759 8.678730 0.915839 0.235883
6753.11 6753.09 0.500000 2.228985 8.425842 0.906940 0.235520
6769.36 6769.37 0.500000 2.209081 8.177533 0.897893 0.235927
6785.8 6785.81 0.500000 2.189479 7.939061 0.888971 0.235606
6802.4 6802.42 0.500000 2.169726 7.719268 0.881597 0.235860
6819.2 6819.21 0.500000 2.150001 7.462821 0.869282 0.234592
6836.19 6836.17 0.500000 2.130245 7.329421 0.870809 0.237421
6841.84 6841.86 0.500000 2.123858 7.116393 0.850895 0.232633