File: xdidata/Cr/Cr-K-Cr2O3.xdi
# XDI/1.0 BlueSky/1.5.3
# Beamline.name: 6BM
# Beamline.xray_source: NSLS-II three-pole wiggler
# Beamline.collimation: paraboloid mirror, 5 nm Rh on 30 nm Pt
# Beamline.focusing: not in use
# Beamline.harmonic_rejection: flat mirror, Si stripe, pitch = 7.0 mrad relative to beam
# Detector.i0: 10 cm N2
# Detector.i1: 25 cm N2
# Detector.i2: 25 cm N2
# Element.symbol: Cr
# Element.edge: K
# Facility.name: NSLS-II
# Facility.energy: 3.0
# Facility.current: 400.5
# Facility.mode: top-off
# Facility.gup: 305882
# Facility.saf: 305422
# Facility.cycle: 2020-1
# Mono.name: Si(111)
# Mono.d_spacing: 3.13532
# Mono.encoder_resolution: 0.0000050 deg/ct
# Mono.angle_offset: 16.0581 deg
# Mono.scan_mode: fixed exit
# Mono.scan_type: step
# Mono.direction: forward in energy
# Sample.name: Cr2O3
# Sample.prep: powder on tape
# Sample.x_position: -74.438 mm
# Sample.y_position: 112.405 mm
# Scan.experimenters: Sarah Nicholas, Bruce Ravel
# Scan.edge_energy: 5989.0
# Scan.start_time: 2020-01-29T15:17:01
# Scan.end_time: 2020-01-29T20:16:54
# Scan.transient_id: 20487
# Scan.uid: d72a1d38-86fd-4137-9b32-218181245c06
# Scan.plot_hint: ln(I0/It)  --  ln($5/$6)
# Scan.sequence: merge of 9 scans
# Column.1: energy eV
# Column.2: requested_energy eV
# Column.3: measurement_time seconds
# Column.4: mutrans
# Column.5: i0
# Column.6: itrans
# Column.7: irefer
# /////
#  Fisher, ground in AW M&P
# -----
# energy   requested_energy   measurement_time   mutrans   i0   itrans   irefer
5789 5789 0.500000 1.816430 47.7308 7.761394 1.394561
5819.02 5819 0.500000 1.779475 47.5999 8.031374 1.481308
5849.01 5849 0.500000 1.743224 47.3173 8.278399 1.567310
5879.01 5879 0.500000 1.707368 47.4631 8.607084 1.671401
5909.01 5909 0.500000 1.672235 46.749 8.780720 1.747646
5939 5939 0.500000 1.637600 46.2761 8.998246 1.834467
5961 5961 0.500000 1.612896 46.4277 9.253515 1.919183
5966.99 5967 0.500000 1.606285 46.2921 9.287610 1.935513
5973 5973 0.500000 1.599781 46.1197 9.313446 1.948672
5979 5979 0.500000 1.593411 45.9271 9.333834 1.960004
5979.74 5979.75 0.500000 1.592668 45.9084 9.336939 1.961922
5980.49 5980.5 0.500000 1.591873 45.8869 9.340004 1.963126
5981.24 5981.25 0.500000 1.591164 45.8523 9.339572 1.963771
5981.99 5982 0.500000 1.590391 45.7951 9.335148 1.963170
5982.74 5982.75 0.500000 1.589661 45.7665 9.336117 1.963775
5983.49 5983.5 0.500000 1.588862 45.6913 9.328225 1.962563
5984.24 5984.25 0.500000 1.588218 45.6224 9.320149 1.960847
5985 5985 0.500000 1.587516 45.5441 9.310737 1.958234
5985.74 5985.75 0.500000 1.586807 45.4341 9.294814 1.953894
5986.5 5986.5 0.500000 1.586161 45.3184 9.277122 1.948055
5987.25 5987.25 0.500000 1.585611 45.1249 9.242607 1.936730
5988 5988 0.500000 1.585109 44.8759 9.196212 1.918344
5988.75 5988.75 0.500000 1.584943 44.4395 9.108297 1.870534
5989.49 5989.5 0.500000 1.585784 43.647 8.938430 1.774645
5990.25 5990.25 0.500000 1.589048 41.5373 8.478533 1.641202
5991 5991 0.500000 1.589185 35.7712 7.300610 1.386891
5991.75 5991.75 0.500000 1.587423 34.454 7.044138 1.315475
5992.5 5992.5 0.500000 1.589365 44.065 8.991674 1.657793
5993.25 5993.25 0.500000 1.593018 46.3931 9.432173 1.719981
5994 5994 0.500000 1.595179 46.5269 9.439006 1.710215
5994.75 5994.75 0.500000 1.593905 46.448 9.434950 1.706569
5995.5 5995.5 0.500000 1.592777 46.3742 9.430655 1.708131
5996.25 5996.25 0.500000 1.592863 46.3091 9.416598 1.706152
5997 5997 0.500000 1.593959 46.2681 9.397980 1.689709
5997.75 5997.75 0.500000 1.598535 46.2045 9.342124 1.648458
5998.5 5998.5 0.500000 1.608499 46.1519 9.238429 1.592301
5999.25 5999.25 0.500000 1.626403 46.0817 9.061167 1.525770
6000 6000 0.500000 1.650001 46.054 8.845160 1.458896
6000.75 6000.75 0.500000 1.673524 46.0155 8.631508 1.399167
6001.5 6001.5 0.500000 1.690257 45.9742 8.481298 1.355853
6002.25 6002.25 0.500000 1.695775 45.9321 8.426700 1.330975
6003 6003 0.500000 1.705391 45.9112 8.341953 1.304186
6003.75 6003.75 0.500000 1.724287 45.8707 8.179124 1.266306
6004.5 6004.5 0.500000 1.744814 45.833 8.006763 1.228641
6005.25 6005.25 0.500000 1.763565 45.8065 7.853321 1.193953
6006.01 6006 0.500000 1.791447 45.764 7.628981 1.148039
6006.75 6006.75 0.500000 1.820573 45.7479 7.409259 1.104130
6007.5 6007.5 0.500000 1.830396 45.7097 7.330370 1.082760
6008.25 6008.25 0.500000 1.825475 45.7019 7.365323 1.075359
6009 6009 0.500000 1.820183 45.6533 7.396370 1.070320
6009.75 6009.75 0.500000 1.824431 45.6548 7.365456 1.065085
6010.5 6010.5 0.500000 1.836266 45.635 7.275765 1.061859
6011.26 6011.25 0.500000 1.844414 45.6296 7.215618 1.069388
6012 6012 0.500000 1.842742 45.6166 7.225811 1.087918
6012.75 6012.75 0.500000 1.827827 45.6117 7.333382 1.119363
6013.5 6013.5 0.500000 1.808911 45.5999 7.471621 1.150382
6015 6014.99 0.500000 1.784927 45.566 7.646864 1.182470
6018.06 6018.06 0.500000 1.760063 45.486 7.825669 1.184140
6021.31 6021.3 0.500000 1.755536 45.4076 7.847673 1.187293
6024.72 6024.71 0.500000 1.763520 45.3336 7.772701 1.184902
6028.3 6028.3 0.500000 1.737343 45.2453 7.963030 1.193080
6032.06 6032.05 0.500000 1.708920 45.1487 8.175045 1.217705
6035.99 6035.98 0.500000 1.690992 45.0419 8.303300 1.235194
6040.09 6040.08 0.500000 1.683096 44.9331 8.348834 1.236156
6044.36 6044.35 0.500000 1.683873 44.8113 8.319810 1.245489
6048.8 6048.79 0.500000 1.681594 44.6844 8.315133 1.262728
6053.42 6053.41 0.500000 1.691462 44.5264 8.204481 1.279901
6058.19 6058.19 0.500000 1.697798 44.3126 8.113636 1.290442
6063.15 6063.15 0.500000 1.704325 44.0956 8.021351 1.277859
6068.28 6068.28 0.500000 1.702699 43.9561 8.008956 1.247925
6073.59 6073.58 0.500000 1.695280 43.8009 8.039987 1.244185
6079.05 6079.05 0.500000 1.684741 43.6046 8.088717 1.293343
6084.7 6084.69 0.500000 1.670284 43.4271 8.173046 1.343441
6090.51 6090.51 0.500000 1.656294 43.2135 8.247363 1.321829
6096.5 6096.49 0.500000 1.646056 42.9947 8.290112 1.270307
6102.66 6102.65 0.500000 1.642114 42.7608 8.277603 1.269990
6108.98 6108.98 0.500000 1.633060 42.4899 8.299873 1.340612
6115.49 6115.48 0.500000 1.624760 42.1897 8.309927 1.383839
6122.16 6122.15 0.500000 1.618475 41.8508 8.295178 1.378858
6129 6128.99 0.500000 1.610443 41.5328 8.298503 1.394454
6136.01 6136 0.500000 1.605280 41.1522 8.264997 1.405212
6143.2 6143.19 0.500000 1.601294 40.7385 8.214585 1.395772
6150.56 6150.55 0.500000 1.593657 40.2417 8.176616 1.377832
6158.08 6158.07 0.500000 1.585594 39.3916 8.068678 1.354627
6165.78 6165.77 0.500000 1.580896 36.6252 7.537396 1.244566
6173.66 6173.65 0.500000 1.568457 39.1371 8.155181 1.380620
6181.7 6181.69 0.500000 1.557762 38.4734 8.102995 1.410732
6189.93 6189.9 0.500000 1.548638 37.813 8.037056 1.415761
6198.3 6198.29 0.500000 1.535898 37.1278 7.992403 1.422384
6206.86 6206.85 0.500000 1.521598 36.3951 7.947533 1.429014
6215.58 6215.57 0.500000 1.513209 35.6282 7.845655 1.432599
6224.48 6224.47 0.500000 1.508575 34.8316 7.705842 1.402472
6233.56 6233.55 0.500000 1.501563 33.9994 7.574723 1.364021
6242.8 6242.79 0.500000 1.490502 33.1193 7.460690 1.334026
6252.21 6252.2 0.500000 1.479561 32.2217 7.338355 1.334746
6261.79 6261.79 0.500000 1.470381 31.2902 7.191946 1.347247
6271.56 6271.55 0.500000 1.460142 30.3357 7.044356 1.330419
6281.47 6281.47 0.500000 1.448193 29.3585 6.899350 1.315230
6291.57 6291.57 0.500000 1.438328 28.3682 6.732752 1.290920
6301.85 6301.85 0.500000 1.428950 27.3909 6.562034 1.273793
6312.29 6312.29 0.500000 1.419204 26.4128 6.389734 1.249006
6322.91 6322.9 0.500000 1.407051 25.4427 6.230311 1.216335
6333.69 6333.69 0.500000 1.394284 24.49 6.074050 1.189706
6344.65 6344.65 0.500000 1.383641 23.5471 5.902660 1.167389
6355.79 6355.78 0.500000 1.374336 22.6328 5.726563 1.147201
6367.09 6367.08 0.500000 1.364440 21.7451 5.556663 1.131061
6378.56 6378.55 0.500000 1.353374 20.8802 5.395055 1.107884
6390.2 6390.19 0.500000 1.343064 20.0333 5.229851 1.082341
6402.03 6402.01 0.500000 1.332958 19.2217 5.068963 1.057116
6413.99 6413.99 0.500000 1.322104 18.4572 4.920428 1.034347
6426.16 6426.15 0.500000 1.311132 17.7237 4.777040 1.013097
6438.49 6438.48 0.500000 1.300270 17.0081 4.634175 0.987254
6450.99 6450.98 0.500000 1.288825 16.362 4.509434 0.970297
6463.66 6463.65 0.500000 1.276507 15.6012 4.353067 0.947957
6476.5 6476.49 0.500000 1.265437 15.1317 4.269032 0.938220
6489.53 6489.51 0.500000 1.254678 14.5867 4.159779 0.923279
6502.68 6502.7 0.500000 1.244264 14.0651 4.052921 0.906351
6516.07 6516.05 0.500000 1.233548 13.5855 3.957016 0.893609
6529.61 6529.58 0.500000 1.222800 13.1336 3.866785 0.882709
6543.28 6543.28 0.500000 1.211141 12.6945 3.781250 0.869923
6557.2 6557.16 0.500000 1.199356 12.2764 3.700195 0.857576
6571.19 6571.2 0.500000 1.186845 11.8923 3.629355 0.849096
6585.44 6585.41 0.500000 1.175662 11.5363 3.560402 0.841403
6599.79 6599.8 0.500000 1.164871 11.1929 3.491802 0.833096
6614.34 6614.36 0.500000 1.153580 10.8628 3.427303 0.825251
6629.07 6629.09 0.500000 1.141612 10.553 3.369651 0.818627
6643.98 6643.99 0.500000 1.129633 10.2514 3.312814 0.812401
6659.05 6659.06 0.500000 1.117674 9.963860 3.258629 0.807315
6674.28 6674.3 0.500000 1.105814 9.681892 3.204157 0.801333
6689.7 6689.72 0.500000 1.094077 9.411150 3.151347 0.795268
6705.29 6705.31 0.500000 1.082630 9.141855 3.096414 0.788336
6721.04 6721.06 0.500000 1.070688 8.887236 3.046339 0.782592
6736.97 6736.99 0.500000 1.058894 8.630780 2.993505 0.776134
6753.07 6753.09 0.500000 1.046853 8.380825 2.942042 0.770588
6769.35 6769.37 0.500000 1.034584 8.136057 2.891348 0.763947
6785.79 6785.81 0.500000 1.022703 7.897367 2.840064 0.758032
6802.39 6802.42 0.500000 1.010597 7.681237 2.795997 0.753661
6819.21 6819.21 0.500000 0.998443 7.435086 2.739524 0.745190
6836.18 6836.17 0.500000 0.986539 7.297960 2.721215 0.746921
6841.84 6841.86 0.500000 0.982574 7.094141 2.655665 0.731060