File: xdidata/Cr/Cr-K-ChromiumFoil.xdi
# XDI/1.0 BlueSky/1.10.0 BMM/2023-1.0-py310-tiled
# Beamline.name: BMM (06BM) -- Beamline for Materials Measurement (NIST)
# Beamline.xray_source: NSLS-II three-pole wiggler
# Beamline.collimation: paraboloid mirror, 5 nm Rh on 30 nm Pt
# Beamline.focusing: not in use
# Beamline.harmonic_rejection: flat mirror, Si stripe, pitch = 7.0 mrad relative to beam
# Beamline.software: Bluesky 1.10.0, Ophyd 1.7.0, DataBroker 2.0.0b13, Python 3.10.8, 2023-1.0-py310-tiled
# Detector.I0: 10 cm N2
# Detector.I1: 25 cm N2
# Detector.I2: 25 cm N2
# Element.symbol: Cr
# Element.edge: K
# Element.reference: Cr
# Element.reference_material: Cr foil
# Facility.name: NSLS-II
# Facility.energy: 3.0
# Facility.current: 400.5
# Facility.mode: top-off
# Facility.GUP: 301027
# Facility.SAF: 310583
# Facility.cycle: 2023-2
# Mono.name: Si(111)
# Mono.d_spacing: 3.13519
# Mono.encoder_resolution: 0.0000050 deg/ct
# Mono.angle_offset: 16.0754 deg
# Mono.scan_mode: pseudo channel cut
# Mono.scan_type: step
# Mono.direction: forward in energy
# Sample.name: Cr foil
# Sample.prep: reference foil
# Sample.x: 109.138 mm
# Sample.y: 153.150 mm
# Sample.SDD_position: 205.000 mm
# Scan.experimenters: Bruce Ravel
# Scan.edge_energy: 5989.2
# Scan.start_time: 2023-05-28T11:54:06
# Scan.end_time: 2023-05-28T12:02:14
# Scan.transient_id: 78658
# Scan.uid: c9882daa-5210-4e33-a77c-930512531ec7
# Scan.plot_hint: ln(It/Ir)  --  ln($6/$7)
# Column.1: energy eV
# Column.2: requested_energy eV
# Column.3: measurement_time seconds
# Column.4: xmu
# Column.5: I0 nA
# Column.6: It nA
# Column.7: Ir nA
# ///////////
# standard reference foil
# -----------
# energy  requested_energy  measurement_time  xmu  I0  It  Ir
  5789.197  5789.200  0.500  3.008692  113.454  61.9444  3.057338
  5819.230  5819.200  0.500  2.962833  113.943  63.4409  3.278136
  5849.208  5849.200  0.500  2.918085  114.132  64.7819  3.500627
  5879.207  5879.200  0.500  2.874372  114.999  66.5269  3.755546
  5909.188  5909.200  0.500  2.831631  113.342  66.789  3.934985
  5939.193  5939.200  0.500  2.789664  113.578  68.1709  4.188545
  5961.195  5961.200  0.500  2.759551  114.148  69.4189  4.395618
  5967.198  5967.200  0.500  2.751834  113.851  69.4453  4.431357
  5973.194  5973.200  0.500  2.744018  113.51  69.5128  4.470465
  5979.192  5979.200  0.500  2.736905  113.124  69.495  4.501229
  5980.087  5980.100  0.500  2.735935  113.031  69.4729  4.504165
  5980.988  5981.000  0.500  2.734765  112.935  69.483  4.510088
  5981.885  5981.900  0.500  2.734080  112.831  69.4555  4.511394
  5982.788  5982.800  0.500  2.733242  112.701  69.4229  4.513056
  5983.695  5983.700  0.500  2.732690  112.545  69.362  4.511591
  5984.592  5984.600  0.500  2.732089  112.328  69.2601  4.507671
  5985.494  5985.500  0.500  2.731854  112.059  69.1361  4.500656
  5986.396  5986.400  0.500  2.732075  111.688  68.9519  4.487668
  5987.296  5987.300  0.500  2.732919  111.081  68.5901  4.460361
  5988.192  5988.200  0.500  2.736429  109.939  67.8956  4.399723
  5989.096  5989.100  0.500  2.749786  107.054  66.1831  4.231848
  5989.996  5990.000  0.500  2.788408  95.1177  58.8266  3.618959
  5990.896  5990.900  0.500  2.818083  85.3636  52.8281  3.154912
  5991.804  5991.800  0.500  2.838887  110.457  68.3809  3.999649
  5992.695  5992.700  0.500  2.855512  113.918  70.5748  4.059909
  5993.601  5993.600  0.500  2.868785  113.97  70.6413  4.010159
  5994.500  5994.500  0.500  2.876129  113.854  70.5981  3.978382
  5995.397  5995.400  0.500  2.877214  113.708  70.5406  3.970826
  5996.305  5996.300  0.500  2.874585  113.572  70.4944  3.978673
  5997.197  5997.200  0.500  2.878656  113.452  70.4663  3.960932
  5998.102  5998.100  0.500  2.897842  113.338  70.4068  3.882375
  5999.001  5999.000  0.500  2.925510  113.234  70.3909  3.775579
  5999.898  5999.900  0.500  2.952491  113.142  70.3762  3.674307
  6000.803  6000.800  0.500  2.975810  113.049  70.3624  3.588913
  6001.699  6001.700  0.500  2.993493  112.969  70.2934  3.522550
  6002.601  6002.600  0.500  3.007454  112.895  70.3323  3.475636
  6003.499  6003.500  0.500  3.019798  112.811  70.3154  3.432171
  6004.403  6004.400  0.500  3.030541  112.751  70.2989  3.394699
  6005.299  6005.300  0.500  3.040698  112.667  70.2704  3.359029
  6006.199  6006.200  0.500  3.052112  112.613  70.2838  3.321541
  6007.103  6007.100  0.500  3.062958  112.961  70.5426  3.297809
  6008.001  6008.000  0.500  3.073984  112.91  70.5527  3.262115
  6008.902  6008.900  0.500  3.086836  112.869  70.5562  3.220617
  6009.804  6009.800  0.500  3.093844  112.809  70.5547  3.198063
  6010.701  6010.700  0.500  3.086956  112.763  70.566  3.220677
  6011.605  6011.600  0.500  3.069819  112.688  70.5798  3.276991
  6012.507  6012.500  0.500  3.049941  112.647  70.5845  3.343003
  6013.401  6013.400  0.500  3.034245  112.589  70.5897  3.396138
  6014.199  6014.200  0.500  3.025411  112.543  70.5917  3.426371
  6017.204  6017.210  0.500  3.032699  112.348  70.5859  3.401210
  6020.400  6020.400  0.500  3.047129  112.147  70.5909  3.352718
  6023.765  6023.760  0.500  3.030800  111.973  70.5949  3.408108
  6027.281  6027.280  0.500  3.042473  111.785  70.6089  3.369229
  6030.982  6030.980  0.500  3.051224  111.554  70.6333  3.341026
  6034.855  6034.850  0.500  3.049135  111.287  70.622  3.347476
  6038.903  6038.900  0.500  3.053999  111.031  70.6267  3.331453
  6043.110  6043.110  0.500  3.044604  110.752  70.6329  3.363199
  6047.495  6047.490  0.500  3.030569  110.471  70.6077  3.409519
  6052.059  6052.050  0.500  3.003997  110.141  70.5977  3.500829
  6056.789  6056.780  0.500  2.977933  109.634  70.4453  3.585519
  6061.687  6061.680  0.500  2.964672  109.077  70.2334  3.622451
  6066.760  6066.750  0.500  2.976641  108.633  70.1283  3.573999
  6071.996  6071.990  0.500  2.996239  108.215  70.091  3.502773
  6077.412  6077.410  0.500  2.968580  107.747  69.9683  3.594704
  6083.001  6082.990  0.500  2.931800  107.234  69.8728  3.724293
  6088.761  6088.750  0.500  2.930762  106.644  69.7185  3.719927
  6094.694  6094.680  0.500  2.973698  106.041  69.5341  3.554160
  6100.785  6100.780  0.500  2.994137  105.402  69.3813  3.474602
  6107.056  6107.050  0.500  2.949974  104.663  69.0683  3.615106
  6113.503  6113.490  0.500  2.901800  103.884  68.8328  3.780590
  6120.109  6120.100  0.500  2.892086  103.013  68.4639  3.797034
  6126.905  6126.890  0.500  2.886088  102.099  68.1386  3.801729
  6133.864  6133.850  0.500  2.866285  101.096  67.7011  3.852865
  6140.981  6140.970  0.500  2.860519  99.9805  67.2328  3.848344
  6148.295  6148.270  0.500  2.862156  98.7007  66.595  3.805600
  6155.775  6155.750  0.500  2.862337  96.943  65.6432  3.750528
  6163.414  6163.390  0.500  2.874787  96.2043  65.4267  3.691906
  6171.228  6171.200  0.500  2.861525  96.5409  65.934  3.770206
  6179.182  6179.190  0.500  2.825498  94.3171  64.6831  3.834358
  6187.341  6187.350  0.500  2.804040  92.6007  63.7601  3.861622
  6195.692  6195.670  0.500  2.790521  90.8869  62.8617  3.859031
  6204.174  6204.170  0.500  2.776420  89.1471  61.8859  3.853080
  6212.854  6212.850  0.500  2.756742  87.3385  60.9047  3.867343
  6221.684  6221.690  0.500  2.748374  85.4617  59.8537  3.832548
  6230.684  6230.700  0.500  2.753355  83.5737  58.8233  3.747852
  6239.903  6239.890  0.500  2.759431  81.652  57.6919  3.653500
  6249.259  6249.250  0.500  2.748834  79.6623  56.5651  3.620304
  6258.780  6258.770  0.500  2.712052  77.689  55.4427  3.681417
  6268.464  6268.470  0.500  2.694245  75.72  54.2584  3.667505
  6278.364  6278.350  0.500  2.680713  73.7607  53.1033  3.638334
  6288.383  6288.390  0.500  2.669568  71.8219  51.9871  3.601780
  6298.595  6298.600  0.500  2.654582  70.106  50.9822  3.585491
  6308.991  6308.990  0.500  2.639970  68.2227  49.8517  3.557589
  6319.537  6319.550  0.500  2.633542  66.3562  48.7319  3.500103
  6330.261  6330.280  0.500  2.627830  64.5144  47.6081  3.438971
  6341.169  6341.180  0.500  2.616066  62.7295  46.5136  3.399669
  6352.239  6352.250  0.500  2.598017  60.9757  45.4534  3.382685
  6363.478  6363.490  0.500  2.577964  59.2704  44.4289  3.373418
  6374.895  6374.910  0.500  2.560928  57.6182  43.3925  3.351334
  6386.476  6386.490  0.500  2.548840  56.0092  42.4198  3.316057
  6398.266  6398.250  0.500  2.535289  54.443  41.4505  3.284490
  6410.168  6410.180  0.500  2.522987  52.9122  40.4976  3.248703
  6422.280  6422.280  0.500  2.508230  51.4134  39.5628  3.220896
  6434.530  6434.550  0.500  2.497337  49.9216  38.6169  3.178316
  6446.976  6446.990  0.500  2.484644  48.4978  37.7293  3.144935
  6459.585  6459.610  0.500  2.466942  46.991  36.74  3.117162
  6472.378  6472.390  0.500  2.451925  45.7376  35.9716  3.098151
  6485.332  6485.350  0.500  2.436163  44.4335  35.1236  3.073167
  6498.460  6498.480  0.500  2.423082  43.1633  34.3173  3.042161
  6511.812  6511.780  0.500  2.408396  41.9351  33.52  3.015440
  6525.231  6525.250  0.500  2.392337  40.7468  32.7378  2.992754
  6538.888  6538.900  0.500  2.377748  39.5808  31.9859  2.966989
  6552.695  6552.710  0.500  2.364708  38.4526  31.2652  2.938204
  6566.684  6566.700  0.500  2.350676  37.3595  30.5374  2.910358
  6580.832  6580.860  0.500  2.335076  36.3186  29.8616  2.890694
  6595.199  6595.190  0.500  2.319480  35.2884  29.1825  2.869358
  6609.671  6609.690  0.500  2.304419  34.3067  28.524  2.847178
  6624.350  6624.360  0.500  2.289765  33.3322  27.8703  2.822993
  6639.181  6639.200  0.500  2.274621  32.3948  27.2435  2.801610
  6654.205  6654.220  0.500  2.259120  31.4627  26.6195  2.780203
  6669.385  6669.400  0.500  2.243549  30.5485  25.9876  2.756795
  6684.745  6684.760  0.500  2.228978  29.657  25.3802  2.731885
  6700.277  6700.290  0.500  2.214525  28.7717  24.7557  2.703451
  6715.973  6715.990  0.500  2.199980  27.9069  24.1596  2.677017
  6731.840  6731.860  0.500  2.184910  27.0378  23.5428  2.648273
  6747.886  6747.910  0.500  2.169449  26.1877  22.9426  2.620975
  6764.105  6764.120  0.500  2.154442  25.3603  22.3408  2.590810
  6780.493  6780.510  0.500  2.138587  24.5393  21.7424  2.561720
  6797.055  6797.070  0.500  2.123406  23.6727  21.0939  2.523325
  6813.782  6813.800  0.500  2.108143  22.7461  20.3833  2.475826
  6830.691  6830.700  0.500  2.093017  21.6549  19.5248  2.407690
  6842.040  6842.060  0.500  2.083063  21.5481  19.5036  2.429138