File: xdidata/Cr/Cr-K-Cr2Na2O7.xdi
# XDI/1.0 BlueSky/1.5.3
# Beamline.name: 6BM
# Beamline.xray_source: NSLS-II three-pole wiggler
# Beamline.collimation: paraboloid mirror, 5 nm Rh on 30 nm Pt
# Beamline.focusing: not in use
# Beamline.harmonic_rejection: flat mirror, Si stripe, pitch = 7.0 mrad relative to beam
# Detector.i0: 10 cm N2
# Detector.i1: 25 cm N2
# Detector.i2: 25 cm N2
# Element.symbol: Cr
# Element.edge: K
# Facility.name: NSLS-II
# Facility.energy: 3.0
# Facility.current: 400.1
# Facility.mode: top-off
# Facility.gup: 305882
# Facility.saf: 305422
# Facility.cycle: 2020-1
# Mono.name: Si(111)
# Mono.d_spacing: 3.13532
# Mono.encoder_resolution: 0.0000050 deg/ct
# Mono.angle_offset: 16.0581 deg
# Mono.scan_mode: fixed exit
# Mono.scan_type: step
# Mono.direction: forward in energy
# Sample.name: Cr2Na2O7.2H2O
# Sample.prep: powder on tape 2x
# Sample.x_position: -74.438 mm
# Sample.y_position: 112.405 mm
# Scan.experimenters: Sarah Nicholas, Bruce Ravel
# Scan.edge_energy: 5989.0
# Scan.start_time: 2020-01-29T14:14:53
# Scan.end_time: 2020-01-29T19:26:07
# Scan.transient_id: 20480
# Scan.uid: e9af1afd-96c9-4ade-8cc2-cc3330142606
# Scan.plot_hint: ln(I0/It)  --  ln($5/$6)
# Scan.sequence: merge of 12 scans
# Column.1: energy eV
# Column.2: requested_energy eV
# Column.3: measurement_time seconds
# Column.4: mutrans
# Column.5: i0
# Column.6: itrans
# Column.7: irefer
# /////
#  Alpha Aesar, ground in AW M&P
# -----
# energy   requested_energy   measurement_time   mutrans   i0   itrans   irefer
5789.01 5789 0.500000 2.971815 47.7419 2.445095 0.504428
5819.01 5819 0.500000 2.918367 47.733 2.578780 0.544651
5849.01 5849 0.500000 2.865154 47.4727 2.704893 0.584952
5879 5879 0.500000 2.812906 47.6506 2.860674 0.633274
5909.02 5909 0.500000 2.761166 46.9146 2.966117 0.671217
5939.01 5939 0.500000 2.710614 46.4383 3.088097 0.714605
5961 5961 0.500000 2.674199 46.6122 3.214754 0.755620
5967.01 5967 0.500000 2.664521 46.4392 3.234030 0.763415
5973.01 5973 0.500000 2.654870 46.265 3.253131 0.771374
5979 5979 0.500000 2.645504 46.0521 3.268622 0.777544
5979.74 5979.75 0.500000 2.644374 46.0054 3.268993 0.777871
5980.49 5980.5 0.500000 2.643218 45.9639 3.269828 0.778523
5981.24 5981.25 0.500000 2.642317 45.9189 3.269564 0.779058
5981.99 5982 0.500000 2.641109 45.8879 3.271326 0.779465
5982.74 5982.75 0.500000 2.640016 45.8346 3.271106 0.779678
5983.49 5983.5 0.500000 2.639052 45.7855 3.270765 0.779761
5984.24 5984.25 0.500000 2.637823 45.7176 3.269906 0.779303
5984.99 5985 0.500000 2.636879 45.6592 3.268805 0.779278
5985.74 5985.75 0.500000 2.636147 45.554 3.263675 0.778060
5986.5 5986.5 0.500000 2.635184 45.4234 3.257434 0.776326
5987.25 5987.25 0.500000 2.634533 45.2566 3.247579 0.773131
5987.99 5988 0.500000 2.634223 44.9976 3.229983 0.766501
5988.75 5988.75 0.500000 2.634224 44.5644 3.198864 0.751564
5989.5 5989.5 0.500000 2.635254 43.7446 3.136781 0.720552
5990.25 5990.25 0.500000 2.638220 41.6044 2.974472 0.672512
5991 5991 0.500000 2.647631 35.7561 2.532267 0.565942
5991.75 5991.75 0.500000 2.672161 34.7371 2.400135 0.530982
5992.5 5992.5 0.500000 2.718921 44.3018 2.920264 0.640539
5993.25 5993.25 0.500000 2.804207 46.4932 2.816167 0.613004
5994 5994 0.500000 2.766818 46.5897 2.928501 0.635519
5994.75 5994.75 0.500000 2.682317 46.517 3.182228 0.690579
5995.5 5995.5 0.500000 2.655022 46.4285 3.263883 0.708909
5996.25 5996.25 0.500000 2.644288 46.3542 3.293922 0.716156
5997.01 5997 0.500000 2.639726 46.2764 3.303532 0.714534
5997.76 5997.75 0.500000 2.638676 46.2131 3.302400 0.705985
5998.5 5998.5 0.500000 2.640559 46.1463 3.291437 0.693928
5999.25 5999.25 0.500000 2.644295 46.1106 3.276577 0.680661
6000 6000 0.500000 2.649080 46.0816 3.258927 0.668643
6000.75 6000.75 0.500000 2.653849 46.0354 3.240176 0.658332
6001.5 6001.5 0.500000 2.657720 46.0175 3.226403 0.650268
6002.25 6002.25 0.500000 2.660296 46.0048 3.217151 0.643594
6003 6003 0.500000 2.662418 45.9771 3.208369 0.637836
6003.75 6003.75 0.500000 2.666488 45.9618 3.194307 0.631564
6004.5 6004.5 0.500000 2.672129 45.9343 3.174464 0.624689
6005.25 6005.25 0.500000 2.681231 45.8986 3.143108 0.615147
6006 6006 0.500000 2.692897 45.8744 3.105110 0.604260
6006.75 6006.75 0.500000 2.706171 45.8398 3.061956 0.592498
6007.5 6007.5 0.500000 2.718636 45.8234 3.022693 0.582194
6008.26 6008.25 0.500000 2.730367 45.7964 2.985615 0.571035
6009 6009 0.500000 2.741977 45.7747 2.949969 0.561561
6009.75 6009.75 0.500000 2.754050 45.7502 2.912927 0.554013
6010.5 6010.5 0.500000 2.764111 45.7237 2.882049 0.551325
6011.25 6011.25 0.500000 2.771998 45.6961 2.857689 0.551622
6012 6012 0.500000 2.777845 45.6756 2.839824 0.553084
6012.75 6012.75 0.500000 2.781605 45.6405 2.826967 0.554991
6013.51 6013.5 0.500000 2.783402 45.6157 2.820347 0.556581
6015 6014.99 0.500000 2.781009 45.5708 2.824337 0.559091
6018.06 6018.06 0.500000 2.771682 45.524 2.847871 0.556954
6021.31 6021.3 0.500000 2.771387 45.4587 2.844646 0.557219
6024.71 6024.71 0.500000 2.779778 45.3598 2.814758 0.554366
6028.3 6028.3 0.500000 2.787296 45.2715 2.788234 0.543472
6032.06 6032.05 0.500000 2.785461 45.1739 2.787296 0.541775
6035.98 6035.98 0.500000 2.777353 45.0575 2.802725 0.545137
6040.09 6040.08 0.500000 2.766122 44.9407 2.827055 0.548656
6044.35 6044.35 0.500000 2.751146 44.8154 2.861697 0.559494
6048.8 6048.79 0.500000 2.735944 44.6649 2.895787 0.571684
6053.41 6053.41 0.500000 2.718211 44.506 2.937112 0.589693
6058.19 6058.19 0.500000 2.704461 44.2855 2.963042 0.602400
6063.16 6063.15 0.500000 2.691658 44.0564 2.985734 0.608506
6068.29 6068.28 0.500000 2.680670 43.8816 3.006751 0.605671
6073.59 6073.58 0.500000 2.672239 43.6998 3.019633 0.606791
6079.06 6079.05 0.500000 2.664878 43.5068 3.028520 0.620830
6084.7 6084.69 0.500000 2.658989 43.2932 3.031448 0.632135
6090.52 6090.51 0.500000 2.653173 43.0725 3.033577 0.624066
6096.5 6096.49 0.500000 2.646138 42.8283 3.037664 0.609838
6102.65 6102.65 0.500000 2.638015 42.5832 3.044919 0.612355
6108.99 6108.98 0.500000 2.629606 42.3035 3.050469 0.632754
6115.49 6115.48 0.500000 2.621432 42.0131 3.054400 0.645987
6122.16 6122.15 0.500000 2.612828 41.7103 3.058590 0.647224
6129 6128.99 0.500000 2.603251 41.3723 3.062991 0.653141
6136.01 6136 0.500000 2.592151 41.0005 3.069354 0.659870
6143.2 6143.19 0.500000 2.579478 40.5944 3.077716 0.662762
6150.56 6150.55 0.500000 2.565518 40.1113 3.083839 0.661697
6158.1 6158.07 0.500000 2.551780 39.2691 3.060925 0.656920
6165.78 6165.77 0.500000 2.538529 36.5039 2.883248 0.613270
6173.68 6173.65 0.500000 2.525223 39.0369 3.124718 0.675615
6181.72 6181.69 0.500000 2.512566 38.3721 3.110607 0.685160
6189.91 6189.9 0.500000 2.500277 37.7258 3.095959 0.687935
6198.28 6198.29 0.500000 2.488070 37.0457 3.077400 0.689145
6206.86 6206.85 0.500000 2.475407 36.3369 3.057073 0.690097
6215.59 6215.57 0.500000 2.462534 35.5747 3.031772 0.691648
6224.48 6224.47 0.500000 2.449656 34.781 3.002523 0.685177
6233.56 6233.55 0.500000 2.436575 33.9425 2.968688 0.673988
6242.8 6242.79 0.500000 2.423665 33.0808 2.930917 0.663979
6252.21 6252.2 0.500000 2.410625 32.181 2.888623 0.662553
6261.8 6261.79 0.500000 2.397166 31.2511 2.843170 0.664869
6271.55 6271.55 0.500000 2.382916 30.3106 2.797161 0.658173
6281.48 6281.47 0.500000 2.368600 29.3537 2.747924 0.651578
6291.58 6291.57 0.500000 2.353577 28.3909 2.698048 0.643715
6301.86 6301.85 0.500000 2.338715 27.4215 2.644951 0.636969
6312.3 6312.29 0.500000 2.323416 26.4675 2.592282 0.628157
6322.91 6322.9 0.500000 2.308277 25.5042 2.536050 0.615686
6333.7 6333.69 0.500000 2.293271 24.5543 2.478504 0.603679
6344.66 6344.65 0.500000 2.277958 23.6284 2.421812 0.594477
6355.79 6355.78 0.500000 2.262608 22.7131 2.364018 0.585433
6367.09 6367.08 0.500000 2.247203 21.8292 2.307272 0.578267
6378.56 6378.55 0.500000 2.231583 20.9668 2.251025 0.569030
6390.19 6390.19 0.500000 2.216390 20.1214 2.193291 0.557526
6402.02 6402.01 0.500000 2.200861 19.3055 2.137306 0.546855
6414 6413.99 0.500000 2.185525 18.5353 2.083750 0.536708
6426.17 6426.15 0.500000 2.169614 17.8018 2.033399 0.528109
6438.49 6438.48 0.500000 2.154028 17.0793 1.981527 0.516665
6450.99 6450.98 0.500000 2.137831 16.4247 1.936668 0.509334
6463.67 6463.65 0.500000 2.121817 15.6546 1.875692 0.497873
6476.5 6476.49 0.500000 2.105095 15.1878 1.850430 0.494701
6489.52 6489.51 0.500000 2.088594 14.633 1.812511 0.488525
6502.72 6502.7 0.500000 2.072079 14.1087 1.776688 0.482105
6516.06 6516.05 0.500000 2.055405 13.6262 1.744769 0.477315
6529.59 6529.58 0.500000 2.038669 13.1703 1.714866 0.473137
6543.26 6543.28 0.500000 2.021856 12.7359 1.686342 0.468435
6557.14 6557.16 0.500000 2.005423 12.314 1.657503 0.463451
6571.18 6571.2 0.500000 1.988696 11.9347 1.633540 0.460391
6585.39 6585.41 0.500000 1.972226 11.5701 1.609920 0.457465
6599.79 6599.8 0.500000 1.955131 11.2338 1.590104 0.455373
6614.34 6614.36 0.500000 1.938532 10.9005 1.568731 0.452928
6629.07 6629.09 0.500000 1.921674 10.5852 1.549263 0.450890
6643.97 6643.99 0.500000 1.904919 10.2864 1.530959 0.449098
6659.04 6659.06 0.500000 1.887996 9.991889 1.512526 0.447381
6674.28 6674.3 0.500000 1.870737 9.712501 1.495845 0.445740
6689.7 6689.72 0.500000 1.854225 9.434650 1.477223 0.443759
6705.3 6705.31 0.500000 1.836867 9.175425 1.461864 0.442346
6721.05 6721.06 0.500000 1.819763 8.903898 1.443024 0.439936
6736.97 6736.99 0.500000 1.802222 8.653891 1.427328 0.438753
6753.07 6753.09 0.500000 1.785274 8.400725 1.409252 0.436670
6769.36 6769.37 0.500000 1.768273 8.154848 1.391484 0.435056
6785.78 6785.81 0.500000 1.751062 7.917469 1.374403 0.433266
6802.4 6802.42 0.500000 1.734017 7.702842 1.360144 0.432285
6819.19 6819.21 0.500000 1.717008 7.452821 1.338568 0.428574
6836.15 6836.17 0.500000 1.699935 7.322987 1.337908 0.431998
6841.84 6841.86 0.500000 1.694309 7.118781 1.307947 0.423345