File: xdidata/Nb/Nb-K-NiobiumCarbide.xdi
# XDI/1.0 BlueSky/1.10.0 BMM/2023-1.0-py310-tiled
# Beamline.name: BMM (06BM) -- Beamline for Materials Measurement (NIST)
# Beamline.xray_source: NSLS-II three-pole wiggler
# Beamline.collimation: paraboloid mirror, 5 nm Rh on 30 nm Pt
# Beamline.focusing: not in use
# Beamline.harmonic_rejection: flat mirror, Pt stripe, pitch = 7.0 mrad relative to beam
# Beamline.software: Bluesky 1.10.0, Ophyd 1.7.0, DataBroker 2.0.0b13, Python 3.10.8, 2023-1.0-py310-tiled
# Detector.I0: 10 cm N2
# Detector.I1: 25 cm N2
# Detector.I2: 25 cm N2
# Element.symbol: Nb
# Element.edge: K
# Element.reference: Nb
# Element.reference_material: Nb foil
# Facility.name: NSLS-II
# Facility.energy: 3.0
# Facility.current: 400.2
# Facility.mode: top-off
# Facility.GUP: 301027
# Facility.SAF: 310583
# Facility.cycle: 2023-2
# Mono.name: Si(111)
# Mono.d_spacing: 3.13519
# Mono.encoder_resolution: 0.0000050 deg/ct
# Mono.angle_offset: 16.0754 deg
# Mono.scan_mode: pseudo channel cut
# Mono.scan_type: step
# Mono.direction: forward in energy
# Sample.name: NbC
# Sample.prep: powder on tape
# Sample.x: 117.785 mm
# Sample.y: 114.695 mm
# Sample.SDD_position: 205.000 mm
# Scan.experimenters: Bruce Ravel
# Scan.edge_energy: 18985.6
# Scan.start_time: 2023-06-23T20:31:44
# Scan.end_time: 2023-06-23T20:39:24
# Scan.transient_id: 85011
# Scan.uid: 3b3232ec-8769-407f-bae0-1b7477bf5faa
# Scan.plot_hint: ln(I0/It)  --  ln($5/$6)
# Column.1: energy eV
# Column.2: requested_energy eV
# Column.3: measurement_time seconds
# Column.4: xmu
# Column.5: I0 nA
# Column.6: It nA
# Column.7: Ir nA
# ///////////
# BMM standards collection
# -----------
# energy  requested_energy  measurement_time  xmu  I0  It  Ir
  18785.464  18785.600  0.500  -0.447605  10.0227  15.6811  13.5701
  18815.668  18815.600  0.500  -0.448207  9.966939  15.6033  13.5118
  18845.674  18845.600  0.500  -0.449368  9.891284  15.5028  13.4307
  18875.729  18875.600  0.500  -0.450083  9.811851  15.3893  13.3328
  18905.724  18905.600  0.500  -0.450544  9.737698  15.2801  13.2434
  18935.705  18935.600  0.500  -0.450910  9.665239  15.1719  13.1424
  18957.669  18957.600  0.500  -0.449655  9.604912  15.0583  13.0158
  18963.634  18963.600  0.500  -0.449011  9.588548  15.023  12.9706
  18969.682  18969.600  0.500  -0.447726  9.572603  14.9787  12.9039
  18975.591  18975.600  0.500  -0.445742  9.559592  14.9287  12.8065
  18976.460  18976.500  0.500  -0.445128  9.550221  14.9049  12.7757
  18977.409  18977.400  0.500  -0.444673  9.541677  14.8848  12.7392
  18978.278  18978.300  0.500  -0.444039  9.521902  14.8446  12.6914
  18979.164  18979.200  0.500  -0.443392  9.509401  14.8155  12.6429
  18980.112  18980.100  0.500  -0.442634  9.502321  14.7932  12.5988
  18981.014  18981.000  0.500  -0.442013  9.504108  14.7868  12.5576
  18981.899  18981.900  0.500  -0.441052  9.506950  14.7771  12.5029
  18982.801  18982.800  0.500  -0.439670  9.517558  14.7731  12.4445
  18983.702  18983.700  0.500  -0.438008  9.525049  14.7602  12.3501
  18984.588  18984.600  0.500  -0.436238  9.530696  14.7428  12.2192
  18985.490  18985.500  0.500  -0.433812  9.526880  14.7012  12.0282
  18986.392  18986.400  0.500  -0.430475  9.522958  14.6462  11.7857
  18987.246  18987.300  0.500  -0.426255  9.526356  14.5897  11.5273
  18988.164  18988.200  0.500  -0.420480  9.547399  14.5377  11.2812
  18989.066  18989.100  0.500  -0.413307  9.543715  14.4283  11.0188
  18989.953  18990.000  0.500  -0.405228  9.540003  14.3066  10.8002
  18990.871  18990.900  0.500  -0.395941  9.532565  14.1633  10.5906
  18991.789  18991.800  0.500  -0.385643  9.529756  14.0141  10.3835
  18992.723  18992.700  0.500  -0.374595  9.529872  13.8603  10.1683
  18993.610  18993.600  0.500  -0.363765  9.524080  13.7026  9.940225
  18994.497  18994.500  0.500  -0.351784  9.525677  13.5417  9.703489
  18995.590  18995.400  0.500  -0.336040  9.516399  13.3172  9.385189
  18996.176  18996.300  0.500  -0.327369  9.510996  13.1947  9.212731
  18997.094  18997.200  0.500  -0.312095  9.510313  12.9938  8.921426
  18997.981  18998.100  0.500  -0.296496  9.506576  12.7876  8.620998
  18998.900  18999.000  0.500  -0.278928  9.502474  12.5595  8.305132
  18999.835  18999.900  0.500  -0.260156  9.504283  12.3283  7.989833
  19000.707  19000.800  0.500  -0.240556  9.500480  12.0842  7.686870
  19001.594  19001.700  0.500  -0.219607  9.495331  11.8273  7.405021
  19002.545  19002.600  0.500  -0.198283  9.491575  11.5732  7.154613
  19003.433  19003.500  0.500  -0.180544  9.489881  11.3676  6.983890
  19004.336  19004.400  0.500  -0.165308  9.492099  11.1984  6.865329
  19005.304  19005.300  0.500  -0.154001  9.483146  11.062  6.800800
  19006.176  19006.200  0.500  -0.147082  9.484115  10.9869  6.787797
  19007.079  19007.100  0.500  -0.143583  9.475132  10.9381  6.794825
  19007.999  19008.000  0.500  -0.142717  9.476634  10.9304  6.823965
  19008.872  19008.900  0.500  -0.142951  9.481513  10.9386  6.843017
  19009.760  19009.800  0.500  -0.142989  9.472343  10.9284  6.837933
  19010.616  19010.600  0.500  -0.142935  9.469283  10.9243  6.829646
  19013.663  19013.610  0.500  -0.139331  9.462108  10.8767  6.756232
  19016.821  19016.800  0.500  -0.133083  9.454142  10.7999  6.701778
  19020.187  19020.160  0.500  -0.125772  9.439151  10.7042  6.614426
  19023.697  19023.680  0.500  -0.140627  9.437462  10.8625  6.641109
  19027.383  19027.380  0.500  -0.173634  9.422716  11.2095  6.778609
  19031.214  19031.250  0.500  -0.188011  9.415573  11.3632  6.886631
  19035.349  19035.300  0.500  -0.194033  9.404538  11.4184  7.051986
  19039.533  19039.510  0.500  -0.199214  9.394320  11.4652  7.153694
  19043.909  19043.890  0.500  -0.192039  9.384907  11.3719  7.078211
  19048.495  19048.450  0.500  -0.174940  9.371251  11.1628  6.928298
  19053.195  19053.180  0.500  -0.161346  9.343084  10.979  6.839692
  19058.088  19058.080  0.500  -0.165515  9.346638  11.029  6.892159
  19063.144  19063.150  0.500  -0.175811  9.337433  11.1322  6.909864
  19068.425  19068.390  0.500  -0.174994  9.323770  11.1068  6.830669
  19073.886  19073.810  0.500  -0.167209  9.302891  10.996  6.808089
  19079.429  19079.390  0.500  -0.168222  9.291538  10.9937  6.875842
  19085.167  19085.150  0.500  -0.171640  9.278843  11.0163  6.888679
  19091.085  19091.080  0.500  -0.177890  9.264195  11.0679  6.920902
  19097.167  19097.180  0.500  -0.186352  9.245416  11.1393  6.956967
  19103.508  19103.450  0.500  -0.192969  9.226198  11.1899  6.948478
  19109.935  19109.890  0.500  -0.191362  9.216070  11.1597  6.928887
  19116.477  19116.500  0.500  -0.185551  9.192113  11.0662  6.920142
  19123.249  19123.290  0.500  -0.179248  9.191676  10.9962  6.934921
  19130.299  19130.250  0.500  -0.177073  9.159264  10.9336  6.914213
  19137.387  19137.370  0.500  -0.181711  9.149872  10.9731  6.930667
  19144.705  19144.670  0.500  -0.188698  9.126647  11.022  6.941206
  19152.205  19152.150  0.500  -0.194085  9.150307  11.1103  6.996848
  19159.793  19159.790  0.500  -0.192522  9.125552  11.0629  6.925275
  19167.595  19167.600  0.500  -0.186998  9.101182  10.9726  6.835322
  19175.615  19175.590  0.500  -0.186609  9.082826  10.9462  6.882629
  19183.753  19183.750  0.500  -0.188225  9.049966  10.9243  6.968701
  19192.061  19192.070  0.500  -0.193640  9.041377  10.9732  7.017923
  19200.586  19200.570  0.500  -0.199703  9.009682  11.0012  7.021986
  19209.216  19209.250  0.500  -0.198980  8.999484  10.9808  6.982744
  19218.146  19218.090  0.500  -0.199343  8.976933  10.9572  6.925303
  19227.133  19227.100  0.500  -0.200536  8.953467  10.9416  6.895765
  19236.290  19236.290  0.500  -0.196689  8.927565  10.8681  6.852763
  19245.684  19245.650  0.500  -0.189146  8.901928  10.7555  6.817761
  19255.185  19255.170  0.500  -0.190537  8.885630  10.7507  6.867258
  19264.907  19264.870  0.500  -0.197872  8.862145  10.8012  6.931063
  19274.753  19274.750  0.500  -0.202592  8.832629  10.8162  6.931062
  19284.838  19284.790  0.500  -0.205942  8.809490  10.8241  6.905061
  19295.048  19295.000  0.500  -0.208179  8.784096  10.817  6.882493
  19305.433  19305.390  0.500  -0.203458  8.760716  10.7374  6.830449
  19315.992  19315.950  0.500  -0.198540  8.732268  10.6501  6.791880
  19326.662  19326.680  0.500  -0.197205  8.687288  10.5811  6.762444
  19337.638  19337.580  0.500  -0.204220  8.677603  10.6437  6.829630
  19348.661  19348.650  0.500  -0.209213  8.651368  10.6646  6.851520
  19359.926  19359.890  0.500  -0.207502  8.623457  10.612  6.824306
  19371.336  19371.310  0.500  -0.209228  8.590009  10.5891  6.802167
  19382.958  19382.890  0.500  -0.209553  8.560990  10.5568  6.785695
  19394.643  19394.650  0.500  -0.208970  8.526109  10.5076  6.751611
  19406.640  19406.580  0.500  -0.208251  8.499364  10.4672  6.723323
  19418.718  19418.680  0.500  -0.208569  8.464035  10.427  6.708036
  19431.027  19430.950  0.500  -0.211057  8.430153  10.4111  6.716420
  19443.402  19443.390  0.500  -0.214964  8.399053  10.4133  6.726875
  19456.025  19456.010  0.500  -0.216544  8.365366  10.3879  6.713938
  19468.847  19468.790  0.500  -0.217149  8.242623  10.2417  6.626276
  19481.786  19481.750  0.500  -0.214062  8.294761  10.2747  6.651529
  19494.927  19494.880  0.500  -0.213226  8.266996  10.2318  6.625721
  19508.235  19508.180  0.500  -0.215930  8.235336  10.2202  6.622345
  19521.679  19521.650  0.500  -0.217008  8.195661  10.1819  6.595675
  19535.359  19535.300  0.500  -0.220047  8.163414  10.1727  6.598417
  19549.176  19549.110  0.500  -0.222284  8.126730  10.1497  6.599607
  19563.114  19563.100  0.500  -0.222093  8.090203  10.1021  6.578857
  19577.341  19577.260  0.500  -0.221662  8.055960  10.055  6.554440
  19591.656  19591.590  0.500  -0.221890  8.018402  10.0104  6.527125
  19606.093  19606.090  0.500  -0.223720  7.934934  9.924384  6.476250
  19620.823  19620.760  0.500  -0.224714  7.949464  9.952449  6.497244
  19635.659  19635.600  0.500  -0.225500  7.894554  9.891475  6.462075
  19650.687  19650.620  0.500  -0.227874  7.873924  9.889071  6.466378
  19665.840  19665.800  0.500  -0.229338  7.826215  9.843558  6.448642
  19681.238  19681.160  0.500  -0.230004  7.804846  9.823218  6.442499
  19696.712  19696.690  0.500  -0.229942  7.762661  9.769516  6.416212
  19712.397  19712.390  0.500  -0.230323  7.720848  9.720602  6.387804
  19728.330  19728.260  0.500  -0.232070  7.680208  9.686336  6.370914
  19744.323  19744.310  0.500  -0.233595  7.559311  9.548410  6.284142
  19760.547  19760.520  0.500  -0.234958  7.608103  9.623149  6.338703
  19776.936  19776.910  0.500  -0.236730  7.565463  9.586192  6.320973
  19793.542  19793.470  0.500  -0.236734  7.527139  9.537671  6.299087
  19810.262  19810.200  0.500  -0.237878  7.486631  9.497201  6.280733
  19827.131  19827.100  0.500  -0.238503  7.445978  9.451536  6.257963
  19838.479  19838.460  0.500  -0.239330  7.419117  9.425232  6.243343