File: xdidata/Nb/Nb-K-NiobiumDioxide.xdi
# XDI/1.0 BlueSky/1.10.0 BMM/2023-1.0-py310-tiled
# Beamline.name: BMM (06BM) -- Beamline for Materials Measurement (NIST)
# Beamline.xray_source: NSLS-II three-pole wiggler
# Beamline.collimation: paraboloid mirror, 5 nm Rh on 30 nm Pt
# Beamline.focusing: not in use
# Beamline.harmonic_rejection: flat mirror, Pt stripe, pitch = 7.0 mrad relative to beam
# Beamline.software: Bluesky 1.10.0, Ophyd 1.7.0, DataBroker 2.0.0b13, Python 3.10.8, 2023-1.0-py310-tiled
# Detector.I0: 10 cm N2
# Detector.I1: 25 cm N2
# Detector.I2: 25 cm N2
# Element.symbol: Nb
# Element.edge: K
# Element.reference: Nb
# Element.reference_material: Nb foil
# Facility.name: NSLS-II
# Facility.energy: 3.0
# Facility.current: 400.3
# Facility.mode: top-off
# Facility.GUP: 301027
# Facility.SAF: 310583
# Facility.cycle: 2023-2
# Mono.name: Si(111)
# Mono.d_spacing: 3.13519
# Mono.encoder_resolution: 0.0000050 deg/ct
# Mono.angle_offset: 16.0754 deg
# Mono.scan_mode: pseudo channel cut
# Mono.scan_type: step
# Mono.direction: forward in energy
# Sample.name: NbO2
# Sample.prep: powder on tape
# Sample.x: 117.785 mm
# Sample.y: 114.695 mm
# Sample.SDD_position: 205.000 mm
# Scan.experimenters: Bruce Ravel
# Scan.edge_energy: 18985.6
# Scan.start_time: 2023-06-23T20:07:41
# Scan.end_time: 2023-06-23T20:15:08
# Scan.transient_id: 84996
# Scan.uid: 821c02aa-c903-4a0c-b8db-6ca8157c4395
# Scan.plot_hint: ln(I0/It)  --  ln($5/$6)
# Column.1: energy eV
# Column.2: requested_energy eV
# Column.3: measurement_time seconds
# Column.4: xmu
# Column.5: I0 nA
# Column.6: It nA
# Column.7: Ir nA
# ///////////
# BMM standards collection
# -----------
# energy  requested_energy  measurement_time  xmu  I0  It  Ir
  18785.634  18785.600  0.500  -0.471172  9.992523  16.0067  13.8522
  18815.668  18815.600  0.500  -0.471909  9.934746  15.9259  13.7921
  18845.720  18845.600  0.500  -0.472642  9.848866  15.7998  13.689
  18875.713  18875.600  0.500  -0.473382  9.771379  15.6871  13.5964
  18905.677  18905.600  0.500  -0.473889  9.693927  15.5707  13.4958
  18935.768  18935.600  0.500  -0.474046  9.618847  15.4525  13.3855
  18957.480  18957.600  0.500  -0.473001  9.549054  15.3244  13.2501
  18963.445  18963.600  0.500  -0.472288  9.535754  15.2921  13.203
  18969.476  18969.600  0.500  -0.471419  9.516143  15.2474  13.1397
  18975.528  18975.600  0.500  -0.469343  9.508340  15.2033  13.0497
  18976.381  18976.500  0.500  -0.469245  9.502037  15.1917  13.0262
  18977.266  18977.400  0.500  -0.468684  9.487518  15.16  12.9862
  18978.231  18978.300  0.500  -0.468316  9.472027  15.1297  12.9413
  18979.116  18979.200  0.500  -0.467677  9.451031  15.0865  12.8857
  18980.049  18980.100  0.500  -0.467312  9.449474  15.0785  12.8502
  18980.935  18981.000  0.500  -0.466833  9.438658  15.054  12.8028
  18981.836  18981.900  0.500  -0.466023  9.444090  15.0505  12.759
  18982.737  18982.800  0.500  -0.465407  9.450360  15.0512  12.703
  18983.671  18983.700  0.500  -0.463933  9.468352  15.0577  12.6385
  18984.572  18984.600  0.500  -0.462868  9.467458  15.0402  12.5171
  18985.506  18985.500  0.500  -0.461185  9.466193  15.0129  12.3455
  18986.360  18986.400  0.500  -0.459532  9.465556  14.9871  12.1441
  18987.262  18987.300  0.500  -0.457152  9.461936  14.9458  11.8848
  18988.133  18988.200  0.500  -0.453803  9.467332  14.9043  11.6411
  18989.051  18989.100  0.500  -0.449417  9.462200  14.831  11.3941
  18990.000  18990.000  0.500  -0.443920  9.458636  14.7442  11.1736
  18990.855  18990.900  0.500  -0.437623  9.462579  14.6577  10.9983
  18991.773  18991.800  0.500  -0.430703  9.459352  14.5517  10.8219
  18992.644  18992.700  0.500  -0.423508  9.463967  14.4544  10.6551
  18993.547  18993.600  0.500  -0.416173  9.463482  14.348  10.4688
  18994.481  18994.500  0.500  -0.408084  9.472045  14.2453  10.2645
  18995.368  18995.400  0.500  -0.400534  9.470547  14.1359  10.0573
  18996.287  18996.300  0.500  -0.391196  9.454995  13.9816  9.801626
  18997.174  18997.200  0.500  -0.381465  9.498141  13.9093  9.598150
  18998.092  18998.100  0.500  -0.369713  9.498450  13.7473  9.320542
  18999.011  18999.000  0.500  -0.355190  9.490448  13.5377  8.997873
  18999.867  18999.900  0.500  -0.340327  9.493030  13.3416  8.703450
  19000.802  19000.800  0.500  -0.321676  9.491022  13.0923  8.371256
  19001.705  19001.700  0.500  -0.302143  9.489719  12.8373  8.072474
  19002.609  19002.600  0.500  -0.281503  9.482973  12.5661  7.795391
  19003.528  19003.500  0.500  -0.259562  9.492930  12.3063  7.571090
  19004.416  19004.400  0.500  -0.239546  9.478146  12.0436  7.384839
  19005.319  19005.300  0.500  -0.218992  9.477116  11.7973  7.241751
  19006.191  19006.200  0.500  -0.201110  9.478633  11.5901  7.147580
  19007.095  19007.100  0.500  -0.184304  9.474165  11.3916  7.065664
  19008.015  19008.000  0.500  -0.170615  9.468292  11.2297  6.998634
  19008.903  19008.900  0.500  -0.158726  9.467736  11.0963  6.937767
  19009.823  19009.800  0.500  -0.147200  9.463732  10.9645  6.864000
  19010.585  19010.600  0.500  -0.139658  9.465577  10.8843  6.809416
  19013.615  19013.610  0.500  -0.128942  9.448319  10.7486  6.681891
  19016.789  19016.800  0.500  -0.139248  9.443024  10.8539  6.736465
  19020.171  19020.160  0.500  -0.136531  9.435098  10.8154  6.690387
  19023.761  19023.680  0.500  -0.133900  9.424082  10.7743  6.593472
  19027.431  19027.380  0.500  -0.153596  9.415682  10.9789  6.645187
  19031.309  19031.250  0.500  -0.182530  9.401986  11.2847  6.833728
  19035.317  19035.300  0.500  -0.201788  9.391990  11.4919  7.090029
  19039.517  19039.510  0.500  -0.208822  9.382852  11.5618  7.211804
  19043.893  19043.890  0.500  -0.212863  9.362197  11.5831  7.212740
  19048.479  19048.450  0.500  -0.217713  9.349940  11.6241  7.218331
  19053.243  19053.180  0.500  -0.220093  9.328047  11.6245  7.239846
  19058.073  19058.080  0.500  -0.213662  9.334973  11.5586  7.222292
  19063.176  19063.150  0.500  -0.201552  9.318625  11.3995  7.082967
  19068.457  19068.390  0.500  -0.190791  9.301102  11.2563  6.924404
  19073.870  19073.810  0.500  -0.181816  9.289570  11.1418  6.891411
  19079.429  19079.390  0.500  -0.182055  9.273747  11.1255  6.954807
  19085.151  19085.150  0.500  -0.186957  9.259316  11.1628  6.981712
  19091.149  19091.080  0.500  -0.190746  9.244792  11.1876  6.996772
  19097.231  19097.180  0.500  -0.195544  9.224172  11.2163  7.003984
  19103.460  19103.450  0.500  -0.200632  9.214834  11.2621  6.996230
  19109.935  19109.890  0.500  -0.203936  9.196177  11.2765  7.001230
  19116.542  19116.500  0.500  -0.206766  9.172525  11.2794  7.053091
  19123.298  19123.290  0.500  -0.209099  9.164396  11.2957  7.121369
  19130.251  19130.250  0.500  -0.210410  9.145093  11.2867  7.137124
  19137.435  19137.370  0.500  -0.210435  9.124946  11.2621  7.115419
  19144.721  19144.670  0.500  -0.209060  9.111377  11.2299  7.075952
  19152.205  19152.150  0.500  -0.208240  9.086969  11.1907  7.047695
  19159.857  19159.790  0.500  -0.206527  9.070175  11.1509  6.985215
  19167.612  19167.600  0.500  -0.205450  9.051548  11.116  6.927436
  19175.631  19175.590  0.500  -0.206737  9.026733  11.0998  6.974506
  19183.770  19183.750  0.500  -0.209604  8.996463  11.0943  7.076037
  19192.142  19192.070  0.500  -0.211864  8.990076  11.1115  7.107781
  19200.635  19200.570  0.500  -0.214125  8.966111  11.107  7.092103
  19209.281  19209.250  0.500  -0.215601  8.947042  11.0998  7.061388
  19218.130  19218.090  0.500  -0.216745  8.922598  11.0821  7.007144
  19227.116  19227.100  0.500  -0.217173  8.899369  11.058  6.971048
  19236.355  19236.290  0.500  -0.218718  8.877772  11.0482  6.967898
  19245.652  19245.650  0.500  -0.218039  8.854077  11.0112  6.978412
  19255.201  19255.170  0.500  -0.217086  8.834917  10.977  7.011345
  19264.907  19264.870  0.500  -0.217034  8.810112  10.9456  7.022905
  19274.819  19274.750  0.500  -0.217369  8.787409  10.921  6.999390
  19284.838  19284.790  0.500  -0.217632  8.765631  10.8968  6.952867
  19295.016  19295.000  0.500  -0.219514  8.738187  10.8832  6.924580
  19305.400  19305.390  0.500  -0.221659  8.717330  10.8805  6.921543
  19316.009  19315.950  0.500  -0.223709  8.699297  10.8803  6.936529
  19326.744  19326.680  0.500  -0.224119  8.656602  10.8313  6.922191
  19337.622  19337.580  0.500  -0.223301  8.648798  10.8127  6.937993
  19348.726  19348.650  0.500  -0.223822  8.620280  10.7827  6.929212
  19359.926  19359.890  0.500  -0.224909  8.597544  10.7659  6.924157
  19371.369  19371.310  0.500  -0.225487  8.563589  10.7296  6.893189
  19382.941  19382.890  0.500  -0.227050  8.535292  10.7109  6.885670
  19394.660  19394.650  0.500  -0.228901  8.519411  10.7108  6.882889
  19406.657  19406.580  0.500  -0.229650  8.474900  10.6628  6.850875
  19418.718  19418.680  0.500  -0.229944  8.450426  10.6351  6.843278
  19430.978  19430.950  0.500  -0.230342  8.415325  10.5951  6.834008
  19443.418  19443.390  0.500  -0.230652  8.390927  10.5677  6.828013
  19456.008  19456.010  0.500  -0.231320  8.356928  10.5319  6.806900
  19468.797  19468.790  0.500  -0.232246  8.229842  10.3814  6.718277
  19481.820  19481.750  0.500  -0.233536  8.289553  10.4702  6.777987
  19494.927  19494.880  0.500  -0.235021  8.263881  10.4533  6.769893
  19508.202  19508.180  0.500  -0.235829  8.224236  10.4115  6.747712
  19521.746  19521.650  0.500  -0.237223  8.195788  10.39  6.731731
  19535.292  19535.300  0.500  -0.237323  8.162182  10.3484  6.711816
  19549.176  19549.110  0.500  -0.238159  8.128882  10.3148  6.705942
  19563.164  19563.100  0.500  -0.238698  8.090122  10.2712  6.689076
  19577.307  19577.260  0.500  -0.239977  8.058403  10.244  6.678531
  19591.673  19591.590  0.500  -0.241041  8.018108  10.2036  6.654207
  19606.178  19606.090  0.500  -0.242262  7.946454  10.1248  6.606229
  19620.890  19620.760  0.500  -0.242609  7.959942  10.1455  6.623533
  19635.693  19635.600  0.500  -0.243751  7.897616  10.0776  6.584135
  19650.704  19650.620  0.500  -0.245203  7.877266  10.0662  6.584098
  19665.908  19665.800  0.500  -0.245941  7.829561  10.0126  6.560909
  19681.272  19681.160  0.500  -0.246820  7.802298  9.986540  6.553425
  19696.729  19696.690  0.500  -0.247892  7.771907  9.958311  6.540565
  19712.431  19712.390  0.500  -0.249096  7.730997  9.917822  6.519182
  19728.261  19728.260  0.500  -0.249570  7.691058  9.871272  6.491598
  19744.408  19744.310  0.500  -0.250638  7.568826  9.724771  6.403135
  19760.547  19760.520  0.500  -0.252138  7.619929  9.805121  6.460814
  19776.971  19776.910  0.500  -0.253275  7.574440  9.757681  6.436714
  19793.490  19793.470  0.500  -0.254367  7.534145  9.716370  6.419810
  19810.262  19810.200  0.500  -0.255103  7.497097  9.675709  6.400717
  19827.096  19827.100  0.500  -0.256141  7.453663  9.629646  6.375289
  19838.514  19838.460  0.500  -0.256847  7.426381  9.601172  6.360839