File: xdidata/Nb/Nb-K-Niobiumfoil.xdi
# XDI/1.0 BlueSky/1.10.0 BMM/2023-1.0-py310-tiled
# Beamline.name: BMM (06BM) -- Beamline for Materials Measurement (NIST)
# Beamline.xray_source: NSLS-II three-pole wiggler
# Beamline.collimation: paraboloid mirror, 5 nm Rh on 30 nm Pt
# Beamline.focusing: not in use
# Beamline.harmonic_rejection: flat mirror, Pt stripe, pitch = 7.0 mrad relative to beam
# Beamline.software: Bluesky 1.10.0, Ophyd 1.7.0, DataBroker 2.0.0b13, Python 3.10.8, 2023-1.0-py310-tiled
# Detector.I0: 10 cm N2
# Detector.I1: 25 cm N2
# Detector.I2: 25 cm N2
# Element.symbol: Nb
# Element.edge: K
# Element.reference: Nb
# Element.reference_material: Nb foil
# Facility.name: NSLS-II
# Facility.energy: 3.0
# Facility.current: 400.8
# Facility.mode: top-off
# Facility.GUP: 301027
# Facility.SAF: 310583
# Facility.cycle: 2023-2
# Mono.name: Si(111)
# Mono.d_spacing: 3.13519
# Mono.encoder_resolution: 0.0000050 deg/ct
# Mono.angle_offset: 16.0754 deg
# Mono.scan_mode: pseudo channel cut
# Mono.scan_type: step
# Mono.direction: forward in energy
# Sample.name: Nb foil
# Sample.prep: reference foil
# Sample.x: 109.138 mm
# Sample.y: 153.150 mm
# Sample.SDD_position: 205.000 mm
# Scan.experimenters: Bruce Ravel
# Scan.edge_energy: 18985.6
# Scan.start_time: 2023-05-28T22:29:09
# Scan.end_time: 2023-05-28T22:36:22
# Scan.transient_id: 79071
# Scan.uid: 0e664a0a-1f56-47cd-8356-9b6d0ab5ae10
# Scan.plot_hint: ln(It/Ir)  --  ln($6/$7)
# Column.1: energy eV
# Column.2: requested_energy eV
# Column.3: measurement_time seconds
# Column.4: xmu
# Column.5: I0 nA
# Column.6: It nA
# Column.7: Ir nA
# ///////////
# standard reference foil
# -----------
# energy  requested_energy  measurement_time  xmu  I0  It  Ir
  18785.526  18785.600  0.500  0.155024  10.1777  19.1277  16.3808
  18815.621  18815.600  0.500  0.154566  10.1067  18.9986  16.2777
  18845.689  18845.600  0.500  0.154065  10.0259  18.8532  16.1613
  18875.635  18875.600  0.500  0.153657  9.948293  18.7152  16.0495
  18905.708  18905.600  0.500  0.153472  9.865604  18.558  15.9177
  18935.673  18935.600  0.500  0.154001  9.787978  18.4146  15.7863
  18957.543  18957.600  0.500  0.155847  9.733461  18.3144  15.6714
  18963.587  18963.600  0.500  0.157077  9.711362  18.2749  15.6184
  18969.619  18969.600  0.500  0.158975  9.690709  18.2334  15.5534
  18975.575  18975.600  0.500  0.162678  9.678619  18.2161  15.4812
  18976.476  18976.500  0.500  0.163783  9.671280  18.2011  15.4514
  18977.345  18977.400  0.500  0.164787  9.672266  18.2004  15.4353
  18978.231  18978.300  0.500  0.166093  9.657067  18.1752  15.3938
  18979.164  18979.200  0.500  0.167367  9.638128  18.1415  15.3457
  18980.049  18980.100  0.500  0.169145  9.627128  18.1172  15.2979
  18980.966  18981.000  0.500  0.171480  9.617915  18.0995  15.2473
  18981.868  18981.900  0.500  0.174086  9.621279  18.1082  15.2149
  18982.769  18982.800  0.500  0.177593  9.630322  18.1248  15.1756
  18983.671  18983.700  0.500  0.182631  9.638682  18.1395  15.1116
  18984.572  18984.600  0.500  0.188988  9.643529  18.1472  15.0222
  18985.474  18985.500  0.500  0.199048  9.645500  18.155  14.8782
  18986.376  18986.400  0.500  0.212254  9.646273  18.1521  14.6807
  18987.278  18987.300  0.500  0.229599  9.644806  18.1529  14.4288
  18988.180  18988.200  0.500  0.248335  9.645768  18.1576  14.1647
  18989.051  18989.100  0.500  0.266294  9.640687  18.1438  13.902
  18990.016  18990.000  0.500  0.282233  9.637311  18.1422  13.681
  18990.918  18990.900  0.500  0.293654  9.633871  18.1339  13.5194
  18991.837  18991.800  0.500  0.302853  9.629779  18.1304  13.393
  18992.739  18992.700  0.500  0.311887  9.626890  18.1243  13.2681
  18993.626  18993.600  0.500  0.321403  9.629119  18.1263  13.144
  18994.528  18994.500  0.500  0.333383  9.621271  18.1153  12.9795
  18995.384  18995.400  0.500  0.345233  9.622234  18.1145  12.8261
  18996.318  18996.300  0.500  0.359544  9.617836  18.1064  12.6381
  18997.221  18997.200  0.500  0.374538  9.614137  18.0995  12.4453
  18998.077  18998.100  0.500  0.391190  9.614674  18.0984  12.239
  18999.027  18999.000  0.500  0.410321  9.612577  18.0925  12.0033
  18999.899  18999.900  0.500  0.429417  9.609151  18.0912  11.7754
  19000.786  19000.800  0.500  0.449150  9.601057  18.0779  11.5368
  19001.689  19001.700  0.500  0.467638  9.600957  18.0715  11.3214
  19002.561  19002.600  0.500  0.482405  9.601702  18.0761  11.1584
  19003.528  19003.500  0.500  0.493373  9.601973  18.0784  11.038
  19004.384  19004.400  0.500  0.498553  9.592168  18.057  10.968
  19005.272  19005.300  0.500  0.499499  9.589514  18.0542  10.9559
  19006.176  19006.200  0.500  0.496574  9.586920  18.0479  10.9841
  19007.064  19007.100  0.500  0.491169  9.584129  18.0445  11.0416
  19007.999  19008.000  0.500  0.485524  9.581316  18.0427  11.103
  19008.856  19008.900  0.500  0.481377  9.578788  18.031  11.1419
  19009.776  19009.800  0.500  0.478967  9.571598  18.0182  11.1609
  19010.616  19010.600  0.500  0.478768  9.572717  18.0232  11.1662
  19013.615  19013.610  0.500  0.484914  9.601871  18.0767  11.1307
  19016.885  19016.800  0.500  0.487466  9.589970  18.0565  11.0899
  19020.219  19020.160  0.500  0.489682  9.580587  18.0405  11.0556
  19023.729  19023.680  0.500  0.499945  9.573167  18.0255  10.9336
  19027.352  19027.380  0.500  0.511007  9.564114  18.0082  10.8029
  19031.262  19031.250  0.500  0.513438  9.559163  17.9997  10.7716
  19035.301  19035.300  0.500  0.495864  9.540108  17.963  10.9403
  19039.564  19039.510  0.500  0.482957  9.530341  17.9446  11.0711
  19043.973  19043.890  0.500  0.483589  9.522546  17.9336  11.0572
  19048.464  19048.450  0.500  0.487276  9.504389  17.8962  10.9936
  19053.163  19053.180  0.500  0.484547  9.473078  17.8403  10.9892
  19058.120  19058.080  0.500  0.480424  9.477169  17.8494  11.0402
  19063.192  19063.150  0.500  0.485389  9.461807  17.8228  10.9692
  19068.394  19068.390  0.500  0.495792  9.452057  17.8026  10.8433
  19073.822  19073.810  0.500  0.491650  9.438437  17.7774  10.8729
  19079.445  19079.390  0.500  0.480376  9.419493  17.743  10.975
  19085.183  19085.150  0.500  0.479484  9.404830  17.7162  10.9681
  19091.085  19091.080  0.500  0.479750  9.394222  17.697  10.9534
  19097.167  19097.180  0.500  0.480754  9.375111  17.6596  10.9192
  19103.476  19103.450  0.500  0.486028  9.355307  17.6242  10.84
  19109.967  19109.890  0.500  0.487190  9.344020  17.6036  10.8148
  19116.493  19116.500  0.500  0.480611  9.319768  17.5582  10.8581
  19123.314  19123.290  0.500  0.471922  9.306437  17.5348  10.9383
  19130.283  19130.250  0.500  0.468801  9.288358  17.5046  10.9535
  19137.419  19137.370  0.500  0.469293  9.270169  17.4729  10.9283
  19144.769  19144.670  0.500  0.471966  9.242739  17.4137  10.8622
  19152.205  19152.150  0.500  0.472494  9.229811  17.3955  10.8451
  19159.825  19159.790  0.500  0.477314  9.211836  17.3603  10.7712
  19167.628  19167.600  0.500  0.483430  9.192273  17.323  10.6825
  19175.598  19175.590  0.500  0.475729  9.169104  17.2783  10.7373
  19183.834  19183.750  0.500  0.460350  9.137072  17.2184  10.8659
  19192.142  19192.070  0.500  0.456628  9.128302  17.207  10.8992
  19200.554  19200.570  0.500  0.458826  9.097836  17.1499  10.8392
  19209.313  19209.250  0.500  0.462086  9.082325  17.1183  10.784
  19218.130  19218.090  0.500  0.468373  9.059948  17.0794  10.692
  19227.133  19227.100  0.500  0.471564  9.033995  17.031  10.6278
  19236.290  19236.290  0.500  0.471046  9.012465  16.9885  10.6067
  19245.700  19245.650  0.500  0.466653  8.985712  16.9414  10.6239
  19255.201  19255.170  0.500  0.458817  8.968041  16.9074  10.686
  19264.924  19264.870  0.500  0.453712  8.940527  16.8595  10.7103
  19274.770  19274.750  0.500  0.454594  8.915874  16.8124  10.6709
  19284.822  19284.790  0.500  0.459075  8.884051  16.7539  10.5863
  19295.081  19295.000  0.500  0.462191  8.858570  16.7079  10.5244
  19305.416  19305.390  0.500  0.462430  8.833639  16.6594  10.4913
  19315.992  19315.950  0.500  0.460137  8.808434  16.6157  10.4878
  19326.711  19326.680  0.500  0.457740  8.756435  16.517  10.4505
  19337.622  19337.580  0.500  0.453926  8.747737  16.5034  10.4818
  19348.677  19348.650  0.500  0.452401  8.723033  16.453  10.4657
  19359.926  19359.890  0.500  0.451186  8.693556  16.4027  10.4465
  19371.353  19371.310  0.500  0.452435  8.660923  16.3438  10.3959
  19382.941  19382.890  0.500  0.451896  8.631562  16.2839  10.3634
  19394.693  19394.650  0.500  0.451991  8.600459  16.2314  10.329
  19406.574  19406.580  0.500  0.452345  8.564540  16.1627  10.2816
  19418.718  19418.680  0.500  0.450807  8.535609  16.1073  10.2622
  19430.928  19430.950  0.500  0.448505  8.500899  16.0461  10.2468
  19443.468  19443.390  0.500  0.446689  8.498798  16.0399  10.2614
  19456.025  19456.010  0.500  0.446098  8.465268  15.9799  10.229
  19468.830  19468.790  0.500  0.445270  8.341018  15.7433  10.086
  19481.786  19481.750  0.500  0.444529  8.399976  15.8594  10.1679
  19494.910  19494.880  0.500  0.444027  8.365747  15.7958  10.1322
  19508.218  19508.180  0.500  0.443700  8.335851  15.7417  10.1008
  19521.662  19521.650  0.500  0.443433  8.300562  15.6718  10.0586
  19535.326  19535.300  0.500  0.442614  8.259982  15.6024  10.0223
  19549.160  19549.110  0.500  0.440199  8.225776  15.5387  10.0055
  19563.198  19563.100  0.500  0.438713  8.188639  15.469  9.975406
  19577.341  19577.260  0.500  0.437407  8.151889  15.3985  9.942935
  19591.656  19591.590  0.500  0.437122  8.116006  15.3311  9.902278
  19606.161  19606.090  0.500  0.436417  8.045027  15.1971  9.822627
  19620.907  19620.760  0.500  0.436216  8.042842  15.1954  9.823462
  19635.709  19635.600  0.500  0.435416  7.982001  15.087  9.761235
  19650.653  19650.620  0.500  0.434243  7.963085  15.0497  9.748484
  19665.840  19665.800  0.500  0.432231  7.914762  14.9512  9.704188
  19681.238  19681.160  0.500  0.430791  7.882117  14.8968  9.682865
  19696.729  19696.690  0.500  0.429765  7.849461  14.8367  9.653683
  19712.414  19712.390  0.500  0.428791  7.807530  14.7574  9.611434
  19728.244  19728.260  0.500  0.428505  7.768840  14.686  9.567697
  19744.340  19744.310  0.500  0.427480  7.644834  14.4556  9.427197
  19760.530  19760.520  0.500  0.426795  7.689642  14.5416  9.489816
  19776.988  19776.910  0.500  0.425522  7.645278  14.4592  9.448063
  19793.456  19793.470  0.500  0.423731  7.602560  14.3795  9.412811
  19810.262  19810.200  0.500  0.422562  7.562506  14.3017  9.372826
  19827.148  19827.100  0.500  0.421601  7.518901  14.2255  9.331873
  19838.514  19838.460  0.500  0.420988  7.490506  14.1706  9.301544