File: xdidata/Ni/Ni-K-NickelOxide.xdi
# XDI/1.0 BlueSky/1.10.0 BMM/2023-1.0-py310-tiled
# Beamline.name: BMM (06BM) -- Beamline for Materials Measurement (NIST)
# Beamline.xray_source: NSLS-II three-pole wiggler
# Beamline.collimation: paraboloid mirror, 5 nm Rh on 30 nm Pt
# Beamline.focusing: not in use
# Beamline.harmonic_rejection: flat mirror, Pt stripe, pitch = 7.0 mrad relative to beam
# Beamline.software: Bluesky 1.10.0, Ophyd 1.7.0, DataBroker 2.0.0b13, Python 3.10.8, 2023-1.0-py310-tiled
# Detector.I0: 10 cm N2
# Detector.I1: 25 cm N2
# Detector.I2: 25 cm N2
# Element.symbol: Ni
# Element.edge: K
# Element.reference: Ni
# Element.reference_material: Ni foil
# Facility.name: NSLS-II
# Facility.energy: 3.0
# Facility.current: 400.0
# Facility.mode: top-off
# Facility.GUP: 301027
# Facility.SAF: 310583
# Facility.cycle: 2023-2
# Mono.name: Si(111)
# Mono.d_spacing: 3.13519
# Mono.encoder_resolution: 0.0000050 deg/ct
# Mono.angle_offset: 16.0754 deg
# Mono.scan_mode: pseudo channel cut
# Mono.scan_type: step
# Mono.direction: forward in energy
# Sample.name: NiO
# Sample.prep: powder in PEG pellet
# Sample.x: 117.785 mm
# Sample.y: 114.695 mm
# Sample.SDD_position: 205.000 mm
# Scan.experimenters: Bruce Ravel
# Scan.edge_energy: 8332.8
# Scan.start_time: 2023-06-23T15:24:28
# Scan.end_time: 2023-06-23T15:32:29
# Scan.transient_id: 84845
# Scan.uid: 4ad14882-a8fb-43f3-9eb1-149c876869b4
# Scan.plot_hint: ln(I0/It)  --  ln($5/$6)
# Column.1: energy eV
# Column.2: requested_energy eV
# Column.3: measurement_time seconds
# Column.4: xmu
# Column.5: I0 nA
# Column.6: It nA
# Column.7: Ir nA
# ///////////
# sample courtesy Martin Stennett, University of Sheffield
# -----------
# energy  requested_energy  measurement_time  xmu  I0  It  Ir
  8132.832  8132.800  0.500  1.502842  135.876  30.232  11.6121
  8162.850  8162.800  0.500  1.479443  135.213  30.7968  11.9508
  8192.824  8192.800  0.500  1.456591  134.598  31.3653  12.2978
  8222.780  8222.800  0.500  1.434325  133.991  31.9268  12.6448
  8252.800  8252.800  0.500  1.413028  131.904  32.1061  12.8385
  8282.801  8282.800  0.500  1.394062  131.21  32.5486  13.135
  8304.784  8304.800  0.500  1.385227  130.647  32.6967  13.2621
  8310.781  8310.800  0.500  1.385163  130.458  32.6513  13.2529
  8316.781  8316.800  0.500  1.387576  130.315  32.537  13.2032
  8322.781  8322.800  0.500  1.395009  130.166  32.2593  13.0582
  8323.675  8323.700  0.500  1.396921  130.073  32.1745  13.0124
  8324.572  8324.600  0.500  1.399207  130.02  32.088  12.9623
  8325.475  8325.500  0.500  1.401749  129.949  31.989  12.9077
  8326.379  8326.400  0.500  1.404927  129.867  31.8675  12.8341
  8327.285  8327.300  0.500  1.408789  129.848  31.7399  12.7489
  8328.192  8328.200  0.500  1.413208  129.832  31.5961  12.6498
  8329.087  8329.100  0.500  1.418870  129.81  31.4123  12.51
  8329.992  8330.000  0.500  1.426596  129.765  31.1598  12.2962
  8330.890  8330.900  0.500  1.438603  129.676  30.7669  11.9035
  8331.792  8331.800  0.500  1.464981  129.674  29.9655  11.0365
  8332.700  8332.700  0.500  1.513132  129.615  28.5437  9.661508
  8333.602  8333.600  0.500  1.512297  129.504  28.5431  8.878770
  8334.501  8334.500  0.500  1.502413  129.38  28.7991  8.417208
  8335.395  8335.400  0.500  1.527850  129.396  28.0791  7.878167
  8336.291  8336.300  0.500  1.594530  129.348  26.2581  7.192036
  8337.197  8337.200  0.500  1.683221  129.333  24.0268  6.458400
  8338.100  8338.100  0.500  1.776626  129.315  21.8811  5.723462
  8339.004  8339.000  0.500  1.935040  129.283  18.6709  4.707614
  8339.895  8339.900  0.500  2.212076  129.252  14.1496  3.455662
  8340.799  8340.800  0.500  2.569470  129.185  9.892455  2.346600
  8341.697  8341.700  0.500  2.902302  129.187  7.091918  1.623099
  8342.604  8342.600  0.500  3.214599  129.114  5.186713  1.132003
  8343.502  8343.500  0.500  3.544265  129.091  3.729410  0.767999
  8344.401  8344.400  0.500  4.040880  129.514  2.277123  0.438541
  8345.297  8345.300  0.500  4.704137  129.508  1.173052  0.208539
  8346.207  8346.200  0.500  5.190626  129.478  0.721003  0.117984
  8347.104  8347.100  0.500  5.536824  129.422  0.509796  0.077143
  8348.006  8348.000  0.500  5.890066  129.379  0.357964  0.051006
  8348.893  8348.900  0.500  6.296244  129.32  0.238365  0.032651
  8349.793  8349.800  0.500  6.609446  129.229  0.174146  0.023139
  8350.702  8350.700  0.500  6.546800  129.097  0.185216  0.024994
  8351.605  8351.600  0.500  6.245530  129.098  0.250335  0.034723
  8352.506  8352.500  0.500  5.882589  129.002  0.359600  0.051355
  8353.400  8353.400  0.500  5.528607  128.907  0.511955  0.074207
  8354.298  8354.300  0.500  5.263420  128.926  0.667522  0.096542
  8355.208  8355.200  0.500  5.097451  128.897  0.787861  0.112324
  8356.103  8356.100  0.500  4.959080  128.887  0.904708  0.125768
  8357.001  8357.000  0.500  4.771569  128.879  1.091228  0.148728
  8357.807  8357.800  0.500  4.572968  128.854  1.330714  0.180258
  8360.836  8360.810  0.500  4.080010  128.817  2.177946  0.306156
  8364.012  8364.000  0.500  4.375107  128.753  1.620582  0.236184
  8367.370  8367.360  0.500  4.541087  128.662  1.371773  0.206806
  8370.894  8370.880  0.500  4.320579  128.561  1.708859  0.258993
  8374.595  8374.580  0.500  4.154457  128.527  2.017143  0.293907
  8378.471  8378.450  0.500  4.113722  128.478  2.100198  0.285773
  8382.510  8382.500  0.500  4.314400  128.362  1.716793  0.223519
  8386.716  8386.710  0.500  4.452730  128.205  1.493168  0.203733
  8391.099  8391.090  0.500  4.799994  128.065  1.053951  0.154396
  8395.661  8395.650  0.500  5.101833  127.901  0.778351  0.117866
  8400.390  8400.380  0.500  5.202597  127.796  0.703166  0.106409
  8405.299  8405.280  0.500  4.962502  127.652  0.892974  0.136307
  8410.360  8410.350  0.500  4.655872  127.534  1.212285  0.182566
  8415.592  8415.590  0.500  4.417544  127.393  1.536849  0.226503
  8421.037  8421.010  0.500  4.303388  127.291  1.721314  0.244653
  8426.593  8426.590  0.500  4.392049  127.13  1.573279  0.213445
  8432.354  8432.350  0.500  4.507582  126.994  1.400117  0.184079
  8438.292  8438.280  0.500  4.525207  126.813  1.373693  0.188858
  8444.388  8444.380  0.500  4.626799  126.66  1.239503  0.181406
  8450.662  8450.650  0.500  4.753031  126.498  1.091111  0.166509
  8457.099  8457.090  0.500  4.617194  126.286  1.247769  0.202262
  8463.703  8463.700  0.500  4.362588  126.092  1.607085  0.260410
  8470.502  8470.490  0.500  4.359309  125.908  1.610011  0.249174
  8477.455  8477.450  0.500  4.644661  125.786  1.209156  0.183773
  8484.601  8484.570  0.500  4.605049  125.57  1.255853  0.190912
  8491.881  8491.870  0.500  4.534840  125.408  1.345461  0.188279
  8499.368  8499.350  0.500  4.623916  125.159  1.228344  0.166816
  8507.009  8506.990  0.500  4.640910  125.008  1.206187  0.168971
  8514.823  8514.800  0.500  4.497362  124.703  1.388979  0.216156
  8522.811  8522.790  0.500  4.246100  124.334  1.780465  0.306812
  8530.977  8530.950  0.500  4.151788  108.595  1.708874  0.287558
  8539.299  8539.270  0.500  4.363778  124.322  1.582640  0.249890
  8547.774  8547.770  0.500  4.531849  124.066  1.335042  0.208535
  8556.473  8556.450  0.500  4.520385  123.767  1.347183  0.214386
  8565.310  8565.290  0.500  4.452527  123.553  1.439282  0.232656
  8574.326  8574.300  0.500  4.409392  123.312  1.499789  0.231115
  8583.502  8583.490  0.500  4.350888  122.954  1.585541  0.239623
  8592.872  8592.850  0.500  4.334795  112.201  1.470346  0.231228
  8602.394  8602.370  0.500  4.280271  122.012  1.688516  0.283718
  8612.096  8612.070  0.500  4.213788  121.012  1.789792  0.307406
  8621.975  8621.950  0.500  4.240136  123.172  1.774374  0.304645
  8632.008  8631.990  0.500  4.306786  122.296  1.648156  0.283388
  8642.244  8642.200  0.500  4.325124  120.175  1.590144  0.269876
  8652.619  8652.590  0.500  4.288906  121.422  1.665901  0.280798
  8663.196  8663.150  0.500  4.171539  121.508  1.874689  0.314265
  8673.903  8673.880  0.500  4.152722  121.186  1.905226  0.318655
  8684.800  8684.780  0.500  4.153191  120.845  1.898986  0.326403
  8695.871  8695.850  0.500  4.133027  120.418  1.930823  0.339660
  8707.104  8707.090  0.500  4.163742  114.235  1.776269  0.314064
  8718.518  8718.510  0.500  4.188121  120.184  1.823757  0.330494
  8730.103  8730.090  0.500  4.154805  119.756  1.878831  0.342125
  8741.871  8741.850  0.500  4.074144  119.329  2.029408  0.369819
  8753.801  8753.780  0.500  4.019240  119.015  2.138303  0.388947
  8765.896  8765.880  0.500  4.046177  118.615  2.074474  0.376715
  8778.171  8778.150  0.500  4.024785  118.324  2.114121  0.384366
  8790.618  8790.590  0.500  4.002529  117.914  2.154223  0.398360
  8803.284  8803.210  0.500  3.994153  117.495  2.164616  0.406906
  8816.024  8815.990  0.500  3.996908  117.147  2.152260  0.406683
  8828.964  8828.950  0.500  3.991579  116.768  2.156762  0.411718
  8842.137  8842.080  0.500  3.955082  116.37  2.229316  0.430882
  8855.453  8855.380  0.500  3.917398  116.026  2.308084  0.450456
  8868.833  8868.850  0.500  3.886359  115.654  2.373211  0.465441
  8882.533  8882.500  0.500  3.873181  115.201  2.395269  0.469442
  8896.382  8896.310  0.500  3.851730  114.78  2.438267  0.477784
  8910.391  8910.300  0.500  3.858447  113.8  2.401275  0.476702
  8924.546  8924.460  0.500  3.853599  112.1  2.376894  0.478264
  8938.756  8938.790  0.500  3.808284  113.663  2.521758  0.511978
  8953.269  8953.290  0.500  3.793477  112.89  2.541961  0.520016
  8967.938  8967.960  0.500  3.764212  112.659  2.612105  0.539276
  8982.784  8982.800  0.500  3.748270  111.938  2.637081  0.549086
  8997.785  8997.820  0.500  3.733347  111.834  2.674237  0.560688
  9012.999  9013.000  0.500  3.717194  111.236  2.703265  0.569625
  9028.340  9028.360  0.500  3.708628  110.916  2.718677  0.576055
  9043.860  9043.890  0.500  3.680292  110.344  2.782384  0.594386
  9059.556  9059.590  0.500  3.656701  109.905  2.837470  0.611481
  9075.435  9075.460  0.500  3.642234  109.403  2.865672  0.623180
  9091.465  9091.510  0.500  3.617108  108.906  2.925250  0.641979
  9107.677  9107.720  0.500  3.594124  108.451  2.980756  0.659126
  9124.067  9124.110  0.500  3.575123  107.976  3.024618  0.675209
  9140.633  9140.670  0.500  3.563623  107.282  3.039951  0.683700
  9157.358  9157.400  0.500  3.552363  105.836  3.032929  0.685979
  9174.266  9174.300  0.500  3.525874  106.448  3.132348  0.713416
  9185.634  9185.660  0.500  3.510438  106.359  3.178411  0.728610