File: xdidata/Ni/Ni-K-LanthanumNickelate.xdi
# XDI/1.0 BlueSky/1.10.0 BMM/2023-1.0-py310-tiled
# Beamline.name: BMM (06BM) -- Beamline for Materials Measurement (NIST)
# Beamline.xray_source: NSLS-II three-pole wiggler
# Beamline.collimation: paraboloid mirror, 5 nm Rh on 30 nm Pt
# Beamline.focusing: not in use
# Beamline.harmonic_rejection: flat mirror, Pt stripe, pitch = 7.0 mrad relative to beam
# Beamline.software: Bluesky 1.10.0, Ophyd 1.7.0, DataBroker 2.0.0b13, Python 3.10.8, 2023-1.0-py310-tiled
# Detector.I0: 10 cm N2
# Detector.I1: 25 cm N2
# Detector.I2: 25 cm N2
# Element.symbol: Ni
# Element.edge: K
# Element.reference: Ni
# Element.reference_material: Ni foil
# Facility.name: NSLS-II
# Facility.energy: 3.0
# Facility.current: 399.3
# Facility.mode: top-off
# Facility.GUP: 301027
# Facility.SAF: 310583
# Facility.cycle: 2023-2
# Mono.name: Si(111)
# Mono.d_spacing: 3.13519
# Mono.encoder_resolution: 0.0000050 deg/ct
# Mono.angle_offset: 16.0754 deg
# Mono.scan_mode: pseudo channel cut
# Mono.scan_type: step
# Mono.direction: forward in energy
# Sample.name: LaNiO3
# Sample.prep: powder in PEG pellet
# Sample.x: 117.785 mm
# Sample.y: 114.695 mm
# Sample.SDD_position: 205.000 mm
# Scan.experimenters: Bruce Ravel
# Scan.edge_energy: 8332.8
# Scan.start_time: 2023-06-23T15:59:34
# Scan.end_time: 2023-06-23T16:07:39
# Scan.transient_id: 84865
# Scan.uid: a5c76479-fe3d-4e72-b753-0f6f0e10d5c9
# Scan.plot_hint: ln(I0/It)  --  ln($5/$6)
# Column.1: energy eV
# Column.2: requested_energy eV
# Column.3: measurement_time seconds
# Column.4: xmu
# Column.5: I0 nA
# Column.6: It nA
# Column.7: Ir nA
# ///////////
# sample courtesy Martin Stennett, University of Sheffield
# -----------
# energy  requested_energy  measurement_time  xmu  I0  It  Ir
  8132.801  8132.800  0.500  2.854355  133.79  7.705392  2.956697
  8162.870  8162.800  0.500  2.821128  133.154  7.927849  3.073300
  8192.853  8192.800  0.500  2.788407  132.447  8.148023  3.191705
  8222.821  8222.800  0.500  2.756324  131.833  8.374689  3.313647
  8252.823  8252.800  0.500  2.724755  131.13  8.597180  3.434326
  8282.822  8282.800  0.500  2.693902  130.775  8.842530  3.564676
  8304.796  8304.800  0.500  2.672179  130.259  9.001109  3.646012
  8310.790  8310.800  0.500  2.666613  130.171  9.045237  3.667405
  8316.790  8316.800  0.500  2.661578  130.01  9.079657  3.680151
  8322.790  8322.800  0.500  2.657054  129.875  9.111316  3.683698
  8323.672  8323.700  0.500  2.656588  129.801  9.110411  3.679832
  8324.581  8324.600  0.500  2.656171  129.835  9.116553  3.679090
  8325.478  8325.500  0.500  2.655691  129.781  9.117161  3.674603
  8326.373  8326.400  0.500  2.655451  129.756  9.117620  3.668404
  8327.279  8327.300  0.500  2.655074  129.71  9.117774  3.659183
  8328.183  8328.200  0.500  2.655075  129.704  9.117389  3.646571
  8329.090  8329.100  0.500  2.655272  129.674  9.113455  3.626922
  8329.992  8330.000  0.500  2.655934  129.619  9.103561  3.591521
  8330.890  8330.900  0.500  2.657630  129.622  9.088332  3.519039
  8331.789  8331.800  0.500  2.662355  129.58  9.042541  3.342860
  8332.691  8332.700  0.500  2.676543  129.533  8.911946  3.034662
  8333.605  8333.600  0.500  2.694850  129.462  8.745471  2.733611
  8334.495  8334.500  0.500  2.697706  129.414  8.717313  2.554175
  8335.395  8335.400  0.500  2.690948  129.29  8.767984  2.462068
  8336.294  8336.300  0.500  2.686924  129.303  8.804253  2.410951
  8337.203  8337.200  0.500  2.687599  129.248  8.794548  2.363248
  8338.097  8338.100  0.500  2.692831  129.253  8.749021  2.289539
  8338.992  8339.000  0.500  2.704938  129.245  8.643166  2.179163
  8339.904  8339.900  0.500  2.722492  129.199  8.489744  2.070487
  8340.805  8340.800  0.500  2.741897  129.091  8.319627  1.971597
  8341.694  8341.700  0.500  2.760591  129.132  8.168141  1.869938
  8342.601  8342.600  0.500  2.781166  129.067  7.997787  1.747447
  8343.502  8343.500  0.500  2.815617  129.012  7.723656  1.591239
  8344.404  8344.400  0.500  2.875752  128.947  7.269197  1.398059
  8345.294  8345.300  0.500  2.966494  128.928  6.637680  1.187134
  8346.201  8346.200  0.500  3.089341  128.886  5.868433  0.975214
  8347.101  8347.100  0.500  3.254695  128.86  4.973043  0.772142
  8348.006  8348.000  0.500  3.466512  128.796  4.021764  0.593113
  8348.896  8348.900  0.500  3.650932  128.688  3.341625  0.480214
  8349.799  8349.800  0.500  3.728787  128.674  3.091012  0.441226
  8350.699  8350.700  0.500  3.687530  128.609  3.219564  0.462055
  8351.599  8351.600  0.500  3.605460  128.513  3.492325  0.507525
  8352.491  8352.500  0.500  3.536623  128.402  3.737959  0.549798
  8353.406  8353.400  0.500  3.485273  128.311  3.932131  0.582412
  8354.307  8354.300  0.500  3.455479  128.296  4.050597  0.597251
  8355.199  8355.200  0.500  3.444795  128.291  4.093924  0.593113
  8356.097  8356.100  0.500  3.442764  128.297  4.102433  0.578665
  8357.004  8357.000  0.500  3.439367  128.264  4.115360  0.567078
  8357.801  8357.800  0.500  3.432331  128.257  4.144190  0.565426
  8360.815  8360.810  0.500  3.403679  128.18  4.262067  0.599828
  8364.018  8364.000  0.500  3.399030  128.112  4.279671  0.626471
  8367.364  8367.360  0.500  3.366910  128.061  4.417594  0.670147
  8371.014  8370.880  0.500  3.293341  127.883  4.748244  0.723391
  8374.562  8374.580  0.500  3.210324  127.819  5.156655  0.755756
  8378.431  8378.450  0.500  3.147385  127.744  5.488456  0.751422
  8382.489  8382.500  0.500  3.123915  127.614  5.613037  0.733879
  8386.704  8386.710  0.500  3.155340  127.994  5.455622  0.747510
  8391.081  8391.090  0.500  3.220640  127.851  5.105036  0.754156
  8395.646  8395.650  0.500  3.283108  127.74  4.791702  0.735024
  8400.381  8400.380  0.500  3.315742  127.58  4.632050  0.711935
  8405.281  8405.280  0.500  3.319672  127.487  4.610516  0.713380
  8410.348  8410.350  0.500  3.298728  127.353  4.703159  0.713248
  8415.586  8415.590  0.500  3.271808  127.212  4.826146  0.715210
  8421.012  8421.010  0.500  3.270398  127.068  4.827460  0.690248
  8426.590  8426.590  0.500  3.274794  126.951  4.801866  0.655879
  8432.351  8432.350  0.500  3.250639  126.8  4.913416  0.651143
  8438.274  8438.280  0.500  3.227024  126.677  5.025967  0.694871
  8444.391  8444.380  0.500  3.206597  126.49  5.122114  0.755501
  8450.656  8450.650  0.500  3.179058  126.337  5.258766  0.810462
  8457.093  8457.090  0.500  3.155195  126.12  5.376525  0.878807
  8463.712  8463.700  0.500  3.154767  126.003  5.373821  0.877005
  8470.509  8470.490  0.500  3.170286  125.731  5.279661  0.822372
  8477.467  8477.450  0.500  3.183730  125.54  5.201213  0.797487
  8484.576  8484.570  0.500  3.189115  125.421  5.168391  0.793770
  8491.890  8491.870  0.500  3.184520  125.238  5.184628  0.732007
  8499.371  8499.350  0.500  3.169719  125.013  5.252476  0.719510
  8506.997  8506.990  0.500  3.147633  124.789  5.360125  0.757871
  8514.820  8514.800  0.500  3.138335  124.515  5.398326  0.845681
  8522.805  8522.790  0.500  3.140688  124.141  5.369464  0.929834
  8530.961  8530.950  0.500  3.127597  108.888  4.771783  0.807309
  8539.284  8539.270  0.500  3.112119  124.119  5.524100  0.878852
  8547.789  8547.770  0.500  3.081801  123.84  5.681341  0.894900
  8556.470  8556.450  0.500  3.067119  123.573  5.752961  0.922227
  8565.307  8565.290  0.500  3.066521  123.304  5.743837  0.936498
  8574.320  8574.300  0.500  3.058932  123.061  5.776192  0.897386
  8583.505  8583.490  0.500  3.056597  122.778  5.776400  0.879237
  8592.872  8592.850  0.500  3.055446  113.643  5.352791  0.846645
  8602.387  8602.370  0.500  3.043737  121.758  5.802580  0.981297
  8612.096  8612.070  0.500  3.013197  120.745  5.932715  1.024878
  8621.962  8621.950  0.500  3.001046  122.957  6.115285  1.057441
  8632.008  8631.990  0.500  3.006699  122.063  6.036575  1.044840
  8642.209  8642.200  0.500  2.998746  120.04  5.983944  1.022645
  8652.599  8652.590  0.500  2.982804  120.951  6.126243  1.040726
  8663.163  8663.150  0.500  2.964054  120.783  6.233510  1.051155
  8673.897  8673.880  0.500  2.938519  120.413  6.375163  1.072003
  8684.790  8684.780  0.500  2.926396  120.127  6.437573  1.113955
  8695.861  8695.850  0.500  2.921145  119.696  6.448279  1.141374
  8707.107  8707.090  0.500  2.915393  113.575  6.153785  1.094458
  8718.521  8718.510  0.500  2.908393  119.365  6.512969  1.189204
  8730.110  8730.090  0.500  2.895055  119.017  6.581186  1.206202
  8741.865  8741.850  0.500  2.875098  118.686  6.695135  1.227174
  8753.804  8753.780  0.500  2.856221  118.364  6.804213  1.244335
  8765.906  8765.880  0.500  2.848334  117.976  6.835647  1.248247
  8778.164  8778.150  0.500  2.841926  117.68  6.862326  1.255339
  8790.608  8790.590  0.500  2.828039  117.271  6.934092  1.288729
  8803.237  8803.210  0.500  2.813177  116.987  7.020841  1.326819
  8816.014  8815.990  0.500  2.797621  116.624  7.108777  1.350435
  8828.974  8828.950  0.500  2.780130  116.284  7.213171  1.384726
  8842.097  8842.080  0.500  2.766064  115.893  7.290719  1.417089
  8855.399  8855.380  0.500  2.754635  115.554  7.352979  1.442898
  8868.870  8868.850  0.500  2.746197  115.155  7.389670  1.456203
  8882.516  8882.500  0.500  2.731175  114.769  7.476376  1.471975
  8896.334  8896.310  0.500  2.717098  114.407  7.558417  1.487377
  8910.323  8910.300  0.500  2.704178  113.404  7.589602  1.514114
  8924.487  8924.460  0.500  2.687884  111.761  7.602533  1.537548
  8938.808  8938.790  0.500  2.674841  113.233  7.803751  1.591613
  8953.307  8953.290  0.500  2.662103  112.844  7.876623  1.619103
  8967.979  8967.960  0.500  2.646326  112.6  7.984576  1.656159
  8982.829  8982.800  0.500  2.632209  111.771  8.038529  1.681664
  8997.852  8997.820  0.500  2.619220  111.74  8.141314  1.714004
  9013.027  9013.000  0.500  2.603604  111.073  8.220106  1.740167
  9028.392  9028.360  0.500  2.588634  110.755  8.320162  1.770671
  9043.931  9043.890  0.500  2.574259  110.275  8.404114  1.802222
  9059.644  9059.590  0.500  2.560627  109.837  8.485607  1.837043
  9075.467  9075.460  0.500  2.546026  109.342  8.571626  1.871396
  9091.522  9091.510  0.500  2.532379  108.797  8.646095  1.905051
  9107.738  9107.720  0.500  2.518475  108.243  8.722480  1.938179
  9124.117  9124.110  0.500  2.503312  107.805  8.819909  1.976740
  9140.727  9140.670  0.500  2.487075  107.13  8.908181  2.010421
  9157.456  9157.400  0.500  2.472399  105.698  8.919071  2.025563
  9174.331  9174.300  0.500  2.457628  106.274  9.101116  2.081511
  9185.677  9185.660  0.500  2.447564  106.109  9.178897  2.110771