File: xdidata/Ni/Ni-K-NickelFerrite.xdi
# XDI/1.0 BlueSky/1.10.0 BMM/2023-1.0-py310-tiled
# Beamline.name: BMM (06BM) -- Beamline for Materials Measurement (NIST)
# Beamline.xray_source: NSLS-II three-pole wiggler
# Beamline.collimation: paraboloid mirror, 5 nm Rh on 30 nm Pt
# Beamline.focusing: not in use
# Beamline.harmonic_rejection: flat mirror, Pt stripe, pitch = 7.0 mrad relative to beam
# Beamline.software: Bluesky 1.10.0, Ophyd 1.7.0, DataBroker 2.0.0b13, Python 3.10.8, 2023-1.0-py310-tiled
# Detector.I0: 10 cm N2
# Detector.I1: 25 cm N2
# Detector.I2: 25 cm N2
# Element.symbol: Ni
# Element.edge: K
# Element.reference: Ni
# Element.reference_material: Ni foil
# Facility.name: NSLS-II
# Facility.energy: 3.0
# Facility.current: 400.8
# Facility.mode: top-off
# Facility.GUP: 301027
# Facility.SAF: 310583
# Facility.cycle: 2023-2
# Mono.name: Si(111)
# Mono.d_spacing: 3.13519
# Mono.encoder_resolution: 0.0000050 deg/ct
# Mono.angle_offset: 16.0754 deg
# Mono.scan_mode: pseudo channel cut
# Mono.scan_type: step
# Mono.direction: forward in energy
# Sample.name: NiFe2O4
# Sample.prep: PEG pellet
# Sample.x: 119.711 mm
# Sample.y: 114.376 mm
# Sample.SDD_position: 205.000 mm
# Scan.experimenters: Bruce Ravel
# Scan.edge_energy: 8332.8
# Scan.start_time: 2023-06-27T09:40:27
# Scan.end_time: 2023-06-27T09:48:28
# Scan.transient_id: 85109
# Scan.uid: 5737853b-b599-442c-984f-e4d3f50aa928
# Scan.plot_hint: ln(I0/It)  --  ln($5/$6)
# Column.1: energy eV
# Column.2: requested_energy eV
# Column.3: measurement_time seconds
# Column.4: xmu
# Column.5: I0 nA
# Column.6: It nA
# Column.7: Ir nA
# ///////////
# courtesy Martin Stennett, University of Sheffield
# -----------
# energy  requested_energy  measurement_time  xmu  I0  It  Ir
  8132.812  8132.800  0.500  2.701235  130.66  8.770214  3.574449
  8162.836  8162.800  0.500  2.667872  130.664  9.068085  3.731266
  8192.888  8192.800  0.500  2.634909  130.609  9.368015  3.891930
  8222.786  8222.800  0.500  2.602668  130.546  9.670309  4.055783
  8252.811  8252.800  0.500  2.570662  130.443  9.976889  4.223179
  8282.825  8282.800  0.500  2.539471  130.198  10.2737  4.385279
  8304.814  8304.800  0.500  2.518101  130.059  10.4844  4.495781
  8310.802  8310.800  0.500  2.512854  130.032  10.5373  4.522396
  8316.802  8316.800  0.500  2.507786  129.999  10.5882  4.542470
  8322.799  8322.800  0.500  2.503791  129.915  10.6237  4.546732
  8323.675  8323.700  0.500  2.503502  129.877  10.6237  4.543099
  8324.575  8324.600  0.500  2.502956  129.908  10.632  4.541424
  8325.478  8325.500  0.500  2.502593  129.888  10.6342  4.537237
  8326.382  8326.400  0.500  2.502443  129.846  10.6324  4.529219
  8327.291  8327.300  0.500  2.502311  129.835  10.6329  4.519055
  8328.189  8328.200  0.500  2.502299  129.789  10.6293  4.503905
  8329.087  8329.100  0.500  2.502554  129.793  10.6269  4.483301
  8329.983  8330.000  0.500  2.503166  129.755  10.6173  4.446572
  8330.887  8330.900  0.500  2.504575  129.739  10.601  4.374237
  8331.798  8331.800  0.500  2.508244  129.735  10.5619  4.202887
  8332.697  8332.700  0.500  2.517230  129.702  10.4648  3.864079
  8333.602  8333.600  0.500  2.521631  129.609  10.4113  3.523576
  8334.498  8334.500  0.500  2.518179  129.566  10.4438  3.297580
  8335.392  8335.400  0.500  2.523053  129.518  10.3892  3.123818
  8336.291  8336.300  0.500  2.531606  129.513  10.3003  3.009091
  8337.191  8337.200  0.500  2.540376  129.48  10.2078  2.926471
  8338.103  8338.100  0.500  2.551397  129.422  10.0914  2.825469
  8339.004  8339.000  0.500  2.572670  129.431  9.879642  2.670687
  8339.904  8339.900  0.500  2.611978  129.378  9.494931  2.479323
  8340.796  8340.800  0.500  2.676338  129.332  8.899963  2.258753
  8341.697  8341.700  0.500  2.766278  129.358  8.136048  2.000265
  8342.601  8342.600  0.500  2.860429  129.292  7.401198  1.743699
  8343.505  8343.500  0.500  2.948480  129.246  6.774995  1.511448
  8344.401  8344.400  0.500  3.054559  129.259  6.093705  1.272587
  8345.297  8345.300  0.500  3.205876  129.189  5.235181  1.017781
  8346.198  8346.200  0.500  3.374240  129.191  4.424035  0.799557
  8347.104  8347.100  0.500  3.509400  129.138  3.863137  0.650133
  8348.003  8348.000  0.500  3.596525  129.093  3.539594  0.562205
  8348.896  8348.900  0.500  3.673138  129.043  3.277268  0.504581
  8349.793  8349.800  0.500  3.776367  128.954  2.953783  0.449625
  8350.705  8350.700  0.500  3.874838  128.901  2.675695  0.408113
  8351.605  8351.600  0.500  3.886318  128.81  2.643274  0.407688
  8352.497  8352.500  0.500  3.795346  128.743  2.893524  0.451897
  8353.397  8353.400  0.500  3.654814  128.685  3.328612  0.524355
  8354.301  8354.300  0.500  3.528492  128.605  3.774444  0.593961
  8355.199  8355.200  0.500  3.444206  128.623  4.106947  0.636894
  8356.097  8356.100  0.500  3.391729  128.584  4.326907  0.654892
  8357.004  8357.000  0.500  3.352656  128.613  4.500347  0.663681
  8357.807  8357.800  0.500  3.314796  128.593  4.673262  0.680044
  8360.827  8360.810  0.500  3.161520  128.59  5.447222  0.813272
  8364.024  8364.000  0.500  3.170692  128.54  5.395424  0.836764
  8367.379  8367.360  0.500  3.235234  128.542  5.058260  0.815334
  8370.903  8370.880  0.500  3.172660  128.833  5.397065  0.875288
  8374.598  8374.580  0.500  3.123850  128.882  5.669176  0.887234
  8378.465  8378.450  0.500  3.102199  128.854  5.792036  0.847271
  8382.522  8382.500  0.500  3.143509  128.804  5.555491  0.772843
  8386.722  8386.710  0.500  3.197435  128.688  5.259078  0.762643
  8391.102  8391.090  0.500  3.269834  128.598  4.888356  0.765526
  8395.665  8395.650  0.500  3.334254  128.505  4.580068  0.746635
  8400.396  8400.380  0.500  3.356440  128.443  4.477401  0.731333
  8405.296  8405.280  0.500  3.328102  128.362  4.603192  0.757590
  8410.369  8410.350  0.500  3.261166  128.307  4.919749  0.793683
  8415.610  8415.590  0.500  3.194770  128.214  5.253678  0.829438
  8421.028  8421.010  0.500  3.158096  128.123  5.446062  0.828949
  8426.611  8426.590  0.500  3.151017  128.045  5.481440  0.798084
  8432.376  8432.350  0.500  3.157066  127.975  5.445380  0.767155
  8438.307  8438.280  0.500  3.165569  127.881  5.395301  0.791516
  8444.453  8444.380  0.500  3.184735  127.805  5.289739  0.826960
  8450.678  8450.650  0.500  3.197938  127.652  5.214120  0.851140
  8457.102  8457.090  0.500  3.173445  127.563  5.339672  0.925204
  8463.722  8463.700  0.500  3.130608  127.43  5.567555  0.966011
  8470.512  8470.490  0.500  3.118803  127.335  5.629467  0.932853
  8477.467  8477.450  0.500  3.152105  127.218  5.440093  0.885291
  8484.579  8484.570  0.500  3.163085  127.094  5.375445  0.877446
  8491.874  8491.870  0.500  3.151329  127.014  5.435596  0.817261
  8499.362  8499.350  0.500  3.141171  126.844  5.483722  0.797592
  8507.006  8506.990  0.500  3.124342  126.738  5.572152  0.834072
  8514.817  8514.800  0.500  3.091599  126.573  5.750131  0.951487
  8522.805  8522.790  0.500  3.055389  126.42  5.954931  1.090933
  8530.967  8530.950  0.500  3.034106  112.826  5.428912  0.975861
  8539.284  8539.270  0.500  3.050655  126.006  5.963580  1.006927
  8547.783  8547.770  0.500  3.068172  125.929  5.856478  0.977902
  8556.460  8556.450  0.500  3.062810  125.773  5.880672  0.998468
  8565.307  8565.290  0.500  3.045853  125.577  5.971914  1.032864
  8574.317  8574.300  0.500  3.030480  125.375  6.054689  0.997850
  8583.499  8583.490  0.500  3.013142  125.137  6.148859  0.991697
  8592.875  8592.850  0.500  2.996749  117.564  5.872214  0.982437
  8602.397  8602.370  0.500  2.985146  124.674  6.300034  1.126538
  8612.100  8612.070  0.500  2.969026  123.739  6.354388  1.162006
  8621.978  8621.950  0.500  2.962800  125.673  6.494007  1.188098
  8632.008  8631.990  0.500  2.955254  124.996  6.507948  1.192045
  8642.215  8642.200  0.500  2.944729  122.191  6.429255  1.162617
  8652.609  8652.590  0.500  2.928816  124.484  6.654975  1.195383
  8663.167  8663.150  0.500  2.909017  124.243  6.774892  1.208128
  8673.903  8673.880  0.500  2.899996  123.998  6.822818  1.213080
  8684.803  8684.780  0.500  2.889327  123.783  6.884030  1.257932
  8695.867  8695.850  0.500  2.874929  123.514  6.968697  1.302612
  8707.104  8707.090  0.500  2.865549  120.747  6.876752  1.291944
  8718.528  8718.510  0.500  2.856336  123.066  7.073680  1.363322
  8730.103  8730.090  0.500  2.842780  122.861  7.158312  1.385291
  8741.855  8741.850  0.500  2.825182  122.631  7.271763  1.407657
  8753.797  8753.780  0.500  2.808647  122.366  7.377017  1.423165
  8765.892  8765.880  0.500  2.796318  122.122  7.453635  1.435928
  8778.161  8778.150  0.500  2.781995  121.855  7.544627  1.455551
  8790.604  8790.590  0.500  2.768242  121.58  7.631843  1.494856
  8803.227  8803.210  0.500  2.756676  121.286  7.701977  1.534268
  8816.014  8815.990  0.500  2.745484  121.151  7.779974  1.557820
  8828.974  8828.950  0.500  2.733314  121.106  7.872294  1.591432
  8842.104  8842.080  0.500  2.717492  120.847  7.980748  1.634377
  8855.405  8855.380  0.500  2.702024  120.566  8.086326  1.671611
  8868.873  8868.850  0.500  2.687118  120.234  8.185179  1.698513
  8882.529  8882.500  0.500  2.672528  119.911  8.283107  1.717338
  8896.331  8896.310  0.500  2.658459  119.608  8.379243  1.735586
  8910.309  8910.300  0.500  2.645380  119.043  8.449494  1.773180
  8924.484  8924.460  0.500  2.632263  116.757  8.396647  1.785206
  8938.825  8938.790  0.500  2.616907  118.723  8.670156  1.858943
  8953.321  8953.290  0.500  2.602052  118.105  8.754067  1.892047
  8967.979  8967.960  0.500  2.587109  118.048  8.881573  1.935635
  8982.833  8982.800  0.500  2.572365  117.461  8.968724  1.972141
  8997.848  8997.820  0.500  2.558428  117.348  9.085851  2.009490
  9013.027  9013.000  0.500  2.544458  116.736  9.165615  2.037177
  9028.364  9028.360  0.500  2.530078  116.738  9.298520  2.078142
  9043.885  9043.890  0.500  2.515450  116.153  9.388235  2.113213
  9059.581  9059.590  0.500  2.499805  115.988  9.522772  2.163288
  9075.496  9075.460  0.500  2.484794  115.648  9.638377  2.208225
  9091.522  9091.510  0.500  2.469633  115.246  9.751627  2.253280
  9107.752  9107.720  0.500  2.454380  114.842  9.866778  2.297801
  9124.124  9124.110  0.500  2.439672  114.509  9.983976  2.345137
  9140.701  9140.670  0.500  2.424936  114.044  10.091  2.387191
  9157.416  9157.400  0.500  2.410040  113.021  10.1506  2.416109
  9174.327  9174.300  0.500  2.394973  113.484  10.347  2.479807
  9185.674  9185.660  0.500  2.384997  113.335  10.4369  2.514340