File: xdidata/Ni/Ni-K-NickelAluminate.xdi
# XDI/1.0 BlueSky/1.10.0 BMM/2023-1.0-py310-tiled
# Beamline.name: BMM (06BM) -- Beamline for Materials Measurement (NIST)
# Beamline.xray_source: NSLS-II three-pole wiggler
# Beamline.collimation: paraboloid mirror, 5 nm Rh on 30 nm Pt
# Beamline.focusing: not in use
# Beamline.harmonic_rejection: flat mirror, Pt stripe, pitch = 7.0 mrad relative to beam
# Beamline.software: Bluesky 1.10.0, Ophyd 1.7.0, DataBroker 2.0.0b13, Python 3.10.8, 2023-1.0-py310-tiled
# Detector.I0: 10 cm N2
# Detector.I1: 25 cm N2
# Detector.I2: 25 cm N2
# Element.symbol: Ni
# Element.edge: K
# Element.reference: Ni
# Element.reference_material: Ni foil
# Facility.name: NSLS-II
# Facility.energy: 3.0
# Facility.current: 400.7
# Facility.mode: top-off
# Facility.GUP: 301027
# Facility.SAF: 310583
# Facility.cycle: 2023-2
# Mono.name: Si(111)
# Mono.d_spacing: 3.13519
# Mono.encoder_resolution: 0.0000050 deg/ct
# Mono.angle_offset: 16.0754 deg
# Mono.scan_mode: pseudo channel cut
# Mono.scan_type: step
# Mono.direction: forward in energy
# Sample.name: NiAl2O4
# Sample.prep: powder on tape
# Sample.x: 117.785 mm
# Sample.y: 114.695 mm
# Sample.SDD_position: 205.000 mm
# Scan.experimenters: Bruce Ravel
# Scan.edge_energy: 8332.8
# Scan.start_time: 2023-06-23T15:50:44
# Scan.end_time: 2023-06-23T15:58:56
# Scan.transient_id: 84860
# Scan.uid: 2fdff45e-b7cc-42c2-baab-dea45c8b2b27
# Scan.plot_hint: ln(I0/It)  --  ln($5/$6)
# Column.1: energy eV
# Column.2: requested_energy eV
# Column.3: measurement_time seconds
# Column.4: xmu
# Column.5: I0 nA
# Column.6: It nA
# Column.7: Ir nA
# ///////////
# BMM standards collection
# -----------
# energy  requested_energy  measurement_time  xmu  I0  It  Ir
  8132.807  8132.800  0.500  0.418079  134.55  88.5754  34.056
  8162.884  8162.800  0.500  0.406175  133.819  89.1495  34.6346
  8192.850  8192.800  0.500  0.394462  133.188  89.7741  35.2334
  8222.824  8222.800  0.500  0.383000  132.507  90.3452  35.8134
  8252.820  8252.800  0.500  0.371807  131.841  90.903  36.3886
  8282.822  8282.800  0.500  0.360743  131.091  91.3909  36.9113
  8304.796  8304.800  0.500  0.352976  130.601  91.7595  37.2485
  8310.784  8310.800  0.500  0.351002  130.439  91.8269  37.3002
  8316.790  8316.800  0.500  0.349215  130.313  91.902  37.3253
  8322.793  8322.800  0.500  0.347593  130.143  91.9313  37.2374
  8323.672  8323.700  0.500  0.347353  130.101  91.9239  37.2068
  8324.572  8324.600  0.500  0.347073  130.087  91.9393  37.1725
  8325.475  8325.500  0.500  0.346792  130.057  91.9444  37.1232
  8326.379  8326.400  0.500  0.346772  129.996  91.9027  37.0429
  8327.288  8327.300  0.500  0.346567  129.951  91.8898  36.9475
  8328.195  8328.200  0.500  0.346623  129.948  91.8829  36.8203
  8329.093  8329.100  0.500  0.346603  129.962  91.894  36.6365
  8329.986  8330.000  0.500  0.346657  129.881  91.8321  36.2959
  8330.884  8330.900  0.500  0.346998  129.876  91.7974  35.6197
  8331.801  8331.800  0.500  0.348309  129.828  91.6428  33.928
  8332.697  8332.700  0.500  0.350711  129.772  91.3838  31.1471
  8333.587  8333.600  0.500  0.350124  129.699  91.3858  28.6424
  8334.483  8334.500  0.500  0.348360  129.601  91.4779  26.8802
  8335.401  8335.400  0.500  0.347987  129.512  91.4492  25.7195
  8336.294  8336.300  0.500  0.349032  129.5  91.3454  25.058
  8337.188  8337.200  0.500  0.350498  129.513  91.2208  24.5681
  8338.094  8338.100  0.500  0.353271  129.469  90.9372  23.8479
  8339.004  8339.000  0.500  0.358943  129.417  90.3864  22.827
  8339.907  8339.900  0.500  0.369695  129.372  89.3891  21.8413
  8340.787  8340.800  0.500  0.388270  129.354  87.7319  20.8339
  8341.697  8341.700  0.500  0.415059  129.285  85.3674  19.582
  8342.601  8342.600  0.500  0.443424  129.22  82.938  18.1603
  8343.502  8343.500  0.500  0.468138  129.221  80.9137  16.7121
  8344.398  8344.400  0.500  0.490053  129.194  79.1435  15.2541
  8345.303  8345.300  0.500  0.519725  129.152  76.8047  13.7292
  8346.201  8346.200  0.500  0.552428  129.128  74.3197  12.3476
  8347.101  8347.100  0.500  0.580256  129.082  72.2545  11.2164
  8347.997  8348.000  0.500  0.597287  129.035  71.0085  10.4808
  8348.902  8348.900  0.500  0.608352  128.987  70.201  10.1054
  8349.796  8349.800  0.500  0.630673  128.911  68.611  9.814196
  8350.687  8350.700  0.500  0.666928  128.816  66.1193  9.509718
  8351.602  8351.600  0.500  0.698078  128.914  64.1397  9.338090
  8352.497  8352.500  0.500  0.693388  128.827  64.3982  9.493149
  8353.391  8353.400  0.500  0.651191  128.799  67.1588  9.969041
  8354.298  8354.300  0.500  0.606655  128.804  70.2202  10.3771
  8355.199  8355.200  0.500  0.579802  128.761  72.1076  10.4655
  8356.103  8356.100  0.500  0.566450  128.745  73.0674  10.329
  8357.001  8357.000  0.500  0.559131  128.744  73.6037  10.1637
  8357.792  8357.800  0.500  0.552217  128.698  74.0878  10.1312
  8360.806  8360.810  0.500  0.506368  128.648  77.5339  10.9345
  8364.000  8364.000  0.500  0.503624  128.554  77.69  11.3942
  8367.458  8367.360  0.500  0.521739  128.458  76.2385  11.5926
  8370.867  8370.880  0.500  0.504809  128.387  77.4972  11.8375
  8374.568  8374.580  0.500  0.484867  128.265  78.9827  11.6037
  8378.440  8378.450  0.500  0.483014  128.252  79.1212  10.8507
  8382.501  8382.500  0.500  0.498858  128.123  77.7993  10.1951
  8386.710  8386.710  0.500  0.515756  127.957  76.3967  10.4878
  8391.087  8391.090  0.500  0.531892  127.842  75.106  11.1186
  8395.640  8395.650  0.500  0.542747  127.708  74.2177  11.4145
  8400.384  8400.380  0.500  0.537440  127.531  74.5091  11.482
  8405.284  8405.280  0.500  0.524280  127.432  75.4376  11.7011
  8410.354  8410.350  0.500  0.522534  127.334  75.511  11.478
  8415.601  8415.590  0.500  0.516878  127.179  75.8469  11.267
  8421.009  8421.010  0.500  0.506833  127.068  76.5456  10.9679
  8426.593  8426.590  0.500  0.499801  126.878  76.9706  10.5365
  8432.360  8432.350  0.500  0.497115  126.793  77.1262  10.2456
  8438.289  8438.280  0.500  0.494288  126.63  77.2451  10.7031
  8444.385  8444.380  0.500  0.496416  126.487  76.9937  11.38
  8450.647  8450.650  0.500  0.496457  126.29  76.8709  11.8687
  8457.093  8457.090  0.500  0.490364  126.048  77.1924  12.649
  8463.712  8463.700  0.500  0.485760  125.905  77.4602  12.6684
  8470.515  8470.490  0.500  0.485981  125.754  77.3504  12.0767
  8477.449  8477.450  0.500  0.488983  125.594  77.0205  11.8356
  8484.586  8484.570  0.500  0.494669  125.397  76.4634  11.7662
  8491.890  8491.870  0.500  0.491448  125.215  76.5988  10.8381
  8499.371  8499.350  0.500  0.481305  125.002  77.2486  10.6036
  8507.009  8506.990  0.500  0.473150  124.785  77.7456  11.0145
  8514.820  8514.800  0.500  0.467126  124.526  78.0531  12.2543
  8522.811  8522.790  0.500  0.464139  124.17  78.063  13.549
  8530.964  8530.950  0.500  0.462576  108.825  68.5225  11.62
  8539.287  8539.270  0.500  0.459504  124.177  78.4298  12.4992
  8547.783  8547.770  0.500  0.457182  123.87  78.4179  12.3794
  8556.470  8556.450  0.500  0.455514  123.605  78.3809  12.5972
  8565.313  8565.290  0.500  0.451880  123.369  78.5157  12.8401
  8574.320  8574.300  0.500  0.448774  123.107  78.5926  12.2367
  8583.505  8583.490  0.500  0.444220  122.825  78.7707  12.0174
  8592.869  8592.850  0.500  0.440370  113.544  73.0993  11.5847
  8602.384  8602.370  0.500  0.438402  121.771  78.5505  13.3123
  8612.084  8612.070  0.500  0.433241  120.821  78.3407  13.5635
  8621.959  8621.950  0.500  0.427906  122.992  80.1749  13.8957
  8631.995  8631.990  0.500  0.423100  122.173  80.0247  13.8826
  8642.199  8642.200  0.500  0.419189  120.15  79.0081  13.5346
  8652.599  8652.590  0.500  0.415689  121.093  79.9077  13.5998
  8663.163  8663.150  0.500  0.412414  120.822  79.9899  13.5191
  8673.890  8673.880  0.500  0.408175  121.072  80.4962  13.5733
  8684.796  8684.780  0.500  0.404250  120.747  80.5959  13.9753
  8695.864  8695.850  0.500  0.400277  120.308  80.6227  14.2987
  8707.101  8707.090  0.500  0.396207  114.236  76.8657  13.7017
  8718.518  8718.510  0.500  0.391697  120.063  81.1518  14.8431
  8730.107  8730.090  0.500  0.387692  119.614  81.1727  14.9111
  8741.865  8741.850  0.500  0.383249  119.32  81.3336  14.9404
  8753.801  8753.780  0.500  0.378706  119  81.485  14.9284
  8765.896  8765.880  0.500  0.374433  118.622  81.5742  14.9195
  8778.171  8778.150  0.500  0.369341  118.28  81.7541  14.9824
  8790.618  8790.590  0.500  0.364829  117.895  81.8563  15.2418
  8803.237  8803.210  0.500  0.360666  117.557  81.9622  15.5213
  8816.008  8815.990  0.500  0.356291  117.135  82.0262  15.6098
  8828.971  8828.950  0.500  0.352456  116.703  82.0373  15.7774
  8842.107  8842.080  0.500  0.348081  116.394  82.1793  16.0043
  8855.405  8855.380  0.500  0.343357  115.96  82.2605  16.173
  8868.873  8868.850  0.500  0.338803  115.617  82.3916  16.2654
  8882.526  8882.500  0.500  0.333720  115.204  82.5152  16.2757
  8896.331  8896.310  0.500  0.329023  114.791  82.6065  16.2869
  8910.316  8910.300  0.500  0.324439  113.731  82.2197  16.4287
  8924.484  8924.460  0.500  0.319775  112.128  81.4402  16.494
  8938.812  8938.790  0.500  0.315094  113.627  82.916  16.9352
  8953.318  8953.290  0.500  0.310395  112.896  82.7703  17.0392
  8967.990  8967.960  0.500  0.305704  112.659  82.9848  17.2386
  8982.808  8982.800  0.500  0.300911  111.9  82.8218  17.3597
  8997.845  8997.820  0.500  0.296218  111.836  83.1642  17.5375
  9013.027  9013.000  0.500  0.291583  111.167  83.0505  17.6047
  9028.375  9028.360  0.500  0.286565  110.854  83.2338  17.7397
  9043.938  9043.890  0.500  0.281964  110.249  83.1612  17.864
  9059.606  9059.590  0.500  0.276941  109.918  83.3289  18.068
  9075.485  9075.460  0.500  0.272119  109.416  83.3495  18.2301
  9091.536  9091.510  0.500  0.267213  108.879  83.348  18.391
  9107.748  9107.720  0.500  0.262222  108.397  83.394  18.5568
  9124.142  9124.110  0.500  0.257312  107.893  83.4148  18.7229
  9140.727  9140.670  0.500  0.252546  107.25  83.3143  18.8373
  9157.459  9157.400  0.500  0.247556  105.893  82.6711  18.8045
  9174.367  9174.300  0.500  0.242616  106.388  83.4689  19.1242
  9185.630  9185.660  0.500  0.239467  106.314  83.6744  19.2781