File: xdidata/As/As-K-ArsenicTrioxide.xdi
# XDI/1.0 BlueSky/1.10.0 BMM/2023-1.0-py310-tiled
# Beamline.name: BMM (06BM) -- Beamline for Materials Measurement (NIST)
# Beamline.xray_source: NSLS-II three-pole wiggler
# Beamline.collimation: paraboloid mirror, 5 nm Rh on 30 nm Pt
# Beamline.focusing: not in use
# Beamline.harmonic_rejection: flat mirror, Pt stripe, pitch = 7.0 mrad relative to beam
# Beamline.software: Bluesky 1.10.0, Ophyd 1.7.0, DataBroker 2.0.0b13, Python 3.10.8, 2023-1.0-py310-tiled
# Detector.I0: 10 cm N2
# Detector.I1: 25 cm N2
# Detector.I2: 25 cm N2
# Element.symbol: As
# Element.edge: K
# Element.reference: As
# Element.reference_material: As2O3
# Facility.name: NSLS-II
# Facility.energy: 3.0
# Facility.current: 400.6
# Facility.mode: top-off
# Facility.GUP: 301027
# Facility.SAF: 310583
# Facility.cycle: 2023-2
# Mono.name: Si(111)
# Mono.d_spacing: 3.13519
# Mono.encoder_resolution: 0.0000050 deg/ct
# Mono.angle_offset: 16.0754 deg
# Mono.scan_mode: pseudo channel cut
# Mono.scan_type: step
# Mono.direction: forward in energy
# Sample.name: As2O3
# Sample.prep: powder on tape
# Sample.x: 109.138 mm
# Sample.y: 153.150 mm
# Sample.SDD_position: 205.000 mm
# Scan.experimenters: Bruce Ravel
# Scan.edge_energy: 11866.7
# Scan.start_time: 2023-05-28T19:18:48
# Scan.end_time: 2023-05-28T19:27:29
# Scan.transient_id: 78945
# Scan.uid: 7a256c1f-9904-47eb-8805-9fe0da8c542d
# Scan.plot_hint: ln(It/Ir)  --  ln($6/$7)
# Column.1: energy eV
# Column.2: requested_energy eV
# Column.3: measurement_time seconds
# Column.4: xmu
# Column.5: I0 nA
# Column.6: It nA
# Column.7: Ir nA
# ///////////
# Welcome to BMM
# -----------
# energy  requested_energy  measurement_time  xmu  I0  It  Ir
  11666.678  11666.700  0.500  0.423532  65.4262  109.703  71.8255
  11696.766  11696.700  0.500  0.420487  65.0228  109.168  71.6938
  11726.719  11726.700  0.500  0.417705  64.5875  108.557  71.4907
  11756.732  11756.700  0.500  0.414901  63.9633  107.63  71.0792
  11786.732  11786.700  0.500  0.412382  63.7321  107.372  71.0879
  11816.748  11816.700  0.500  0.410886  63.2691  106.703  70.7507
  11838.674  11838.700  0.500  0.412284  62.9856  106.307  70.3897
  11844.666  11844.700  0.500  0.414160  62.8971  106.191  70.1812
  11850.688  11850.700  0.500  0.417895  62.8125  106.075  69.8433
  11856.680  11856.700  0.500  0.426162  62.6333  105.792  69.083
  11857.568  11857.600  0.500  0.428298  62.6762  105.864  68.9828
  11858.467  11858.500  0.500  0.430679  62.5097  105.589  68.6399
  11859.379  11859.400  0.500  0.433756  62.3307  105.289  68.2348
  11860.273  11860.300  0.500  0.437329  62.3769  105.37  68.0435
  11861.172  11861.200  0.500  0.441743  62.5281  105.631  67.9118
  11862.072  11862.100  0.500  0.447099  62.441  105.487  67.457
  11862.973  11863.000  0.500  0.453571  62.4188  105.451  66.9987
  11863.885  11863.900  0.500  0.462009  62.525  105.635  66.5516
  11864.773  11864.800  0.500  0.473102  62.5686  105.719  65.8702
  11865.686  11865.700  0.500  0.488745  62.5585  105.703  64.838
  11866.593  11866.600  0.500  0.510441  62.5411  105.674  63.429
  11867.494  11867.500  0.500  0.542646  62.5278  105.658  61.4095
  11868.383  11868.400  0.500  0.590418  62.5101  105.633  58.5309
  11869.296  11869.300  0.500  0.664812  62.48  105.595  54.3147
  11870.204  11870.200  0.500  0.776937  62.3463  105.365  48.448
  11871.087  11871.100  0.500  0.920546  62.2955  105.289  41.9368
  11871.994  11872.000  0.500  1.045792  62.3997  105.472  37.0642
  11872.878  11872.900  0.500  1.077825  62.4349  105.54  35.9189
  11873.798  11873.800  0.500  1.035451  62.4244  105.531  37.4704
  11874.700  11874.700  0.500  0.989688  62.4088  105.502  39.2141
  11875.602  11875.600  0.500  0.961833  62.3903  105.472  40.3107
  11876.517  11876.500  0.500  0.934527  62.3746  105.439  41.4135
  11877.394  11877.400  0.500  0.898919  62.3565  105.42  42.9067
  11878.297  11878.300  0.500  0.861059  62.3386  105.39  44.55
  11879.187  11879.200  0.500  0.833966  62.3224  105.367  45.7635
  11880.090  11880.100  0.500  0.822651  62.3061  105.341  46.2726
  11880.981  11881.000  0.500  0.829791  62.2859  105.308  45.9291
  11881.896  11881.900  0.500  0.851521  62.2614  105.273  44.9268
  11882.793  11882.800  0.500  0.871639  62.2277  105.22  44.01
  11883.703  11883.700  0.500  0.877810  62.0515  104.918  43.6135
  11884.600  11884.600  0.500  0.871151  61.7923  104.498  43.7293
  11885.479  11885.500  0.500  0.860442  61.7542  104.426  44.1698
  11886.383  11886.400  0.500  0.852498  62.0662  104.961  44.75
  11887.287  11887.300  0.500  0.848145  62.2906  105.34  45.1076
  11888.172  11888.200  0.500  0.844669  62.307  105.367  45.2761
  11889.046  11889.100  0.500  0.839997  62.2557  105.294  45.4566
  11889.944  11890.000  0.500  0.832218  62.2099  105.21  45.7751
  11890.861  11890.900  0.500  0.824031  62.1933  105.189  46.1423
  11891.667  11891.700  0.500  0.818868  62.1772  105.163  46.3694
  11894.689  11894.710  0.500  0.794846  62.1287  105.093  47.4651
  11897.874  11897.900  0.500  0.783571  62.071  105.015  47.968
  11901.257  11901.260  0.500  0.779695  61.5176  104.075  47.7233
  11904.765  11904.780  0.500  0.771755  61.9591  104.833  48.4539
  11908.461  11908.480  0.500  0.764886  61.929  104.809  48.7768
  11912.357  11912.350  0.500  0.767439  61.869  104.719  48.6105
  11916.397  11916.400  0.500  0.781602  61.332  103.824  47.5175
  11920.608  11920.610  0.500  0.788527  61.7493  104.557  47.5225
  11925.007  11924.990  0.500  0.796496  61.7001  104.49  47.1151
  11929.557  11929.550  0.500  0.807516  61.6315  104.388  46.5533
  11934.279  11934.280  0.500  0.812445  61.0021  103.344  45.8613
  11939.185  11939.180  0.500  0.814429  61.4713  104.148  46.1262
  11944.237  11944.250  0.500  0.817055  61.4077  104.049  45.9614
  11949.499  11949.490  0.500  0.816919  61.3286  103.939  45.9192
  11954.902  11954.910  0.500  0.809919  61.2549  103.839  46.1974
  11960.503  11960.490  0.500  0.805643  61.1676  103.704  46.3349
  11966.260  11966.250  0.500  0.800858  61.079  103.592  46.5072
  11972.190  11972.180  0.500  0.797224  60.9869  103.456  46.6151
  11978.270  11978.280  0.500  0.793860  60.8969  103.326  46.7133
  11984.537  11984.550  0.500  0.788916  60.8032  103.185  46.8805
  11991.006  11990.990  0.500  0.785015  60.7093  103.041  46.9985
  11997.619  11997.600  0.500  0.783709  60.6102  102.898  46.9945
  12004.377  12004.390  0.500  0.785598  60.5171  102.773  46.8486
  12011.376  12011.350  0.500  0.789185  60.4276  102.64  46.6204
  12018.490  12018.470  0.500  0.792129  60.503  102.795  46.5536
  12025.769  12025.770  0.500  0.793893  60.4282  102.69  46.4241
  12033.253  12033.250  0.500  0.794760  60.3212  102.54  46.3161
  12040.911  12040.890  0.500  0.794135  60.2105  102.374  46.2703
  12048.724  12048.700  0.500  0.791387  58.8114  100.024  45.3326
  12056.705  12056.690  0.500  0.788287  59.9564  101.999  46.3712
  12064.843  12064.850  0.500  0.786013  59.8453  101.841  46.4048
  12073.164  12073.170  0.500  0.785030  59.725  101.652  46.3642
  12081.686  12081.670  0.500  0.783234  59.6008  101.472  46.3652
  12090.368  12090.350  0.500  0.780936  59.44  101.226  46.3593
  12099.221  12099.190  0.500  0.779556  59.3588  101.13  46.3794
  12108.234  12108.200  0.500  0.777745  59.2342  100.946  46.3788
  12117.408  12117.390  0.500  0.775386  59.1073  100.76  46.4026
  12126.775  12126.750  0.500  0.773838  58.952  100.526  46.3665
  12136.292  12136.270  0.500  0.773492  58.844  100.369  46.3103
  12145.997  12145.970  0.500  0.774433  58.6957  100.166  46.1728
  12155.860  12155.850  0.500  0.775475  58.5506  99.9276  46.0151
  12165.893  12165.890  0.500  0.774720  58.4056  99.719  45.9538
  12176.099  12176.100  0.500  0.771989  58.2436  99.4806  45.9693
  12186.502  12186.490  0.500  0.768594  58.1  99.2684  46.0272
  12197.067  12197.050  0.500  0.765948  57.9402  99.0349  46.0407
  12207.792  12207.780  0.500  0.764529  57.8074  98.8334  46.0122
  12218.693  12218.680  0.500  0.763785  57.6554  98.6048  45.9399
  12229.751  12229.750  0.500  0.763061  57.496  98.3694  45.8635
  12240.998  12240.990  0.500  0.761338  57.3064  98.0891  45.8116
  12252.443  12252.410  0.500  0.758565  57.1651  97.8726  45.8375
  12264.014  12263.990  0.500  0.755711  55.6715  95.3573  44.7871
  12275.785  12275.750  0.500  0.753649  56.8387  97.3877  45.8351
  12287.684  12287.680  0.500  0.752798  56.6103  97.0335  45.7073
  12299.791  12299.780  0.500  0.752473  56.3805  96.6782  45.5548
  12312.054  12312.050  0.500  0.752077  56.2967  96.5792  45.5261
  12324.507  12324.490  0.500  0.750530  56.0545  96.1914  45.4135
  12337.139  12337.110  0.500  0.748218  55.9386  96.0371  45.4456
  12349.896  12349.890  0.500  0.745472  55.6642  95.6056  45.3658
  12362.867  12362.850  0.500  0.743062  55.5731  95.4833  45.4171
  12376.025  12375.980  0.500  0.741354  55.4239  95.2547  45.3859
  12389.312  12389.280  0.500  0.740033  55.2546  95.0104  45.3293
  12402.796  12402.750  0.500  0.738686  55.0624  94.72  45.2517
  12416.423  12416.400  0.500  0.736842  54.8519  94.3885  45.1765
  12430.263  12430.210  0.500  0.734432  54.641  94.077  45.1361
  12444.248  12444.200  0.500  0.732078  54.5026  93.8743  45.145
  12458.401  12458.360  0.500  0.729905  54.3014  93.5673  45.0952
  12472.716  12472.690  0.500  0.728448  54.1003  93.2556  45.0105
  12487.233  12487.190  0.500  0.727225  53.7455  92.6802  44.7876
  12501.921  12501.860  0.500  0.725968  53.7135  92.6716  44.8397
  12516.760  12516.700  0.500  0.724157  53.5042  92.3544  44.7672
  12531.744  12531.720  0.500  0.721808  53.2993  92.0361  44.7178
  12546.944  12546.900  0.500  0.719449  53.0998  91.7402  44.6794
  12562.297  12562.260  0.500  0.717330  52.8905  91.4137  44.6148
  12577.847  12577.790  0.500  0.715336  52.6609  91.0606  44.5312
  12593.512  12593.490  0.500  0.713740  52.4484  90.7263  44.4385
  12609.404  12609.360  0.500  0.711992  52.2341  90.399  44.3557
  12625.441  12625.410  0.500  0.709876  52.0171  90.0612  44.2836
  12641.665  12641.620  0.500  0.707719  51.7233  89.6008  44.1523
  12658.051  12658.010  0.500  0.705457  51.5782  89.3905  44.1484
  12674.619  12674.570  0.500  0.703425  51.5157  89.328  44.2073
  12691.337  12691.300  0.500  0.701690  51.3028  88.9913  44.1171
  12708.247  12708.200  0.500  0.699850  51.0828  88.6529  44.0303
  12719.586  12719.560  0.500  0.698740  50.9161  88.4022  43.9546