File: xdidata/As/As-K-ArsenoBetaine.xdi
# XDI/1.0 BlueSky/1.10.0 BMM/2023-1.0-py310-tiled
# Beamline.name: BMM (06BM) -- Beamline for Materials Measurement (NIST)
# Beamline.xray_source: NSLS-II three-pole wiggler
# Beamline.collimation: paraboloid mirror, 5 nm Rh on 30 nm Pt
# Beamline.focusing: not in use
# Beamline.harmonic_rejection: flat mirror, Pt stripe, pitch = 7.0 mrad relative to beam
# Beamline.software: Bluesky 1.10.0, Ophyd 1.7.0, DataBroker 2.0.0b13, Python 3.10.8, 2023-1.0-py310-tiled
# Detector.I0: 10 cm N2
# Detector.I1: 25 cm N2
# Detector.I2: 25 cm N2
# Element.symbol: As
# Element.edge: K
# Element.reference: As
# Element.reference_material: As2O3
# Facility.name: NSLS-II
# Facility.energy: 3.0
# Facility.current: 400.4
# Facility.mode: top-off
# Facility.GUP: 301027
# Facility.SAF: 310583
# Facility.cycle: 2023-2
# Mono.name: Si(111)
# Mono.d_spacing: 3.13519
# Mono.encoder_resolution: 0.0000050 deg/ct
# Mono.angle_offset: 16.0754 deg
# Mono.scan_mode: pseudo channel cut
# Mono.scan_type: step
# Mono.direction: forward in energy
# Sample.name: C5H11AsO2
# Sample.prep: powder in PEG pellet
# Sample.x: 115.008 mm
# Sample.y: 114.461 mm
# Sample.SDD_position: 170.000 mm
# Scan.experimenters: Bruce Ravel
# Scan.edge_energy: 11866.7
# Scan.start_time: 2023-07-10T17:10:52
# Scan.end_time: 2023-07-10T17:18:47
# Scan.transient_id: 90311
# Scan.uid: 1a66f364-0084-4df2-a304-24d8081f3ab8
# Scan.plot_hint: ln(I0/It)  --  ln($5/$6)
# Column.1: energy eV
# Column.2: requested_energy eV
# Column.3: measurement_time seconds
# Column.4: xmu
# Column.5: I0 nA
# Column.6: It nA
# Column.7: Ir nA
# ///////////
# sample courtesy Evan Jahrman, NIST
# -----------
# energy  requested_energy  measurement_time  xmu  I0  It  Ir
  11666.713  11666.700  0.500  0.129879  64.9871  57.0718  38.8243
  11696.754  11696.700  0.500  0.124229  64.6275  57.0776  38.9317
  11726.749  11726.700  0.500  0.118528  64.2294  57.0503  39.011
  11756.750  11756.700  0.500  0.113319  63.7211  56.8944  39.0035
  11786.695  11786.700  0.500  0.108383  63.4245  56.9098  39.0956
  11816.729  11816.700  0.500  0.104772  62.9882  56.7227  39.0103
  11838.674  11838.700  0.500  0.105392  62.7228  56.4487  38.7464
  11844.672  11844.700  0.500  0.107081  62.6422  56.2811  38.5502
  11850.664  11850.700  0.500  0.110840  62.5482  55.9858  38.1995
  11856.662  11856.700  0.500  0.119514  62.3092  55.2901  37.401
  11857.561  11857.600  0.500  0.121389  62.4119  55.2775  37.3157
  11858.473  11858.500  0.500  0.123819  62.4265  55.1563  37.1396
  11859.367  11859.400  0.500  0.126554  62.2125  54.8171  36.806
  11860.273  11860.300  0.500  0.129940  62.0808  54.5162  36.4684
  11861.172  11861.200  0.500  0.134206  62.1676  54.36  36.2092
  11862.072  11862.100  0.500  0.139072  62.2732  54.188  35.91
  11862.960  11863.000  0.500  0.144521  62.1757  53.8091  35.4351
  11863.879  11863.900  0.500  0.151831  62.2116  53.4481  34.9157
  11864.786  11864.800  0.500  0.160987  62.3087  53.0436  34.2867
  11865.692  11865.700  0.500  0.173185  62.3319  52.42  33.402
  11866.593  11866.600  0.500  0.189485  62.3288  51.5699  32.2416
  11867.500  11867.500  0.500  0.212335  62.3052  50.3858  30.6294
  11868.395  11868.400  0.500  0.244670  62.282  48.7645  28.4852
  11869.278  11869.300  0.500  0.293198  62.268  46.4441  25.5667
  11870.191  11870.200  0.500  0.375324  62.2301  42.7562  21.4568
  11871.093  11871.100  0.500  0.526272  62.0847  36.6799  16.1051
  11872.007  11872.000  0.500  0.810865  62.1106  27.6065  10.4037
  11872.914  11872.900  0.500  1.264068  62.2048  17.573  5.883886
  11873.792  11873.800  0.500  1.718540  62.2266  11.159  3.605460
  11874.688  11874.700  0.500  1.769287  62.2233  10.6062  3.580229
  11875.590  11875.600  0.500  1.462871  62.2049  14.4048  5.092237
  11876.504  11876.500  0.500  1.187748  62.1877  18.9615  6.939680
  11877.413  11877.400  0.500  1.060859  62.1767  21.523  8.203738
  11878.303  11878.300  0.500  1.036638  62.1634  22.0459  8.819993
  11879.212  11879.200  0.500  1.057239  62.1481  21.5911  9.015299
  11880.102  11880.100  0.500  1.083808  62.1388  21.0218  9.004807
  11880.981  11881.000  0.500  1.109441  62.1236  20.4848  8.824077
  11881.902  11881.900  0.500  1.147223  62.1091  19.7207  8.360282
  11882.806  11882.800  0.500  1.198490  62.0878  18.7287  7.711794
  11883.709  11883.700  0.500  1.244033  62.0483  17.8835  7.205777
  11884.619  11884.600  0.500  1.261966  61.7586  17.4837  7.024333
  11885.491  11885.500  0.500  1.245414  61.3849  17.6679  7.173147
  11886.383  11886.400  0.500  1.207510  61.4845  18.3802  7.556315
  11887.299  11887.300  0.500  1.162176  61.8024  19.3321  8.011682
  11888.197  11888.200  0.500  1.118260  61.9452  20.2467  8.433530
  11889.101  11889.100  0.500  1.079272  61.9651  21.0584  8.816126
  11889.999  11890.000  0.500  1.045904  61.9491  21.7673  9.182404
  11890.910  11890.900  0.500  1.017093  61.9435  22.4015  9.545995
  11891.710  11891.700  0.500  0.994962  61.9345  22.8995  9.834106
  11894.726  11894.710  0.500  0.935200  61.8848  24.2903  10.7006
  11897.923  11897.900  0.500  0.886260  61.8281  25.4852  11.4538
  11901.269  11901.260  0.500  0.845851  61.5382  26.4117  11.918
  11904.784  11904.780  0.500  0.827009  61.6995  26.9846  12.2727
  11908.504  11908.480  0.500  0.827721  61.7016  26.9663  12.3752
  11912.363  11912.350  0.500  0.846104  61.878  26.5508  12.1817
  11916.416  11916.400  0.500  0.879037  61.6073  25.5783  11.5399
  11920.614  11920.610  0.500  0.915057  61.7803  24.7426  11.053
  11925.019  11924.990  0.500  0.943269  61.7361  24.0371  10.6484
  11929.564  11929.550  0.500  0.957282  61.6809  23.6815  10.3466
  11934.279  11934.280  0.500  0.961580  61.3868  23.4674  10.1928
  11939.191  11939.180  0.500  0.956847  61.5146  23.6279  10.2296
  11944.256  11944.250  0.500  0.950658  61.4654  23.7556  10.2547
  11949.480  11949.490  0.500  0.943599  61.3952  23.8965  10.3025
  11954.921  11954.910  0.500  0.933824  61.3154  24.0999  10.4756
  11960.516  11960.490  0.500  0.921057  61.2404  24.3797  10.6486
  11966.253  11966.250  0.500  0.907469  61.1523  24.6777  10.8409
  11972.184  11972.180  0.500  0.896411  61.0751  24.9206  10.9943
  11978.276  11978.280  0.500  0.890272  60.9855  25.0372  11.0888
  11984.512  11984.550  0.500  0.888674  60.8957  25.0404  11.1494
  11991.049  11990.990  0.500  0.889694  60.7969  24.9742  11.1734
  11997.838  11997.600  0.500  0.892592  60.6861  24.8566  11.14
  12004.390  12004.390  0.500  0.895949  60.6048  24.7401  11.0657
  12011.351  12011.350  0.500  0.899643  60.5179  24.6135  10.9591
  12018.465  12018.470  0.500  0.902070  60.4218  24.5149  10.8737
  12025.776  12025.770  0.500  0.902631  60.324  24.4615  10.8239
  12033.228  12033.250  0.500  0.900732  60.2229  24.4669  10.8137
  12040.898  12040.890  0.500  0.897509  60.1168  24.5026  10.8335
  12048.699  12048.700  0.500  0.891837  58.2958  23.8956  10.5949
  12056.680  12056.690  0.500  0.884858  59.8798  24.7168  10.9983
  12064.856  12064.850  0.500  0.877859  59.7808  24.8492  11.0872
  12073.176  12073.170  0.500  0.872026  59.6694  24.948  11.1412
  12081.674  12081.670  0.500  0.867670  59.5421  25.0034  11.185
  12090.361  12090.350  0.500  0.865132  59.4133  25.0127  11.2162
  12099.208  12099.190  0.500  0.863893  59.3167  25.003  11.2289
  12108.196  12108.200  0.500  0.863332  59.2039  24.9695  11.2342
  12117.389  12117.390  0.500  0.862553  59.0754  24.9347  11.2469
  12126.743  12126.750  0.500  0.861559  58.9418  24.9031  11.2531
  12136.266  12136.270  0.500  0.859727  58.8415  24.9063  11.2565
  12145.984  12145.970  0.500  0.856919  58.7104  24.9207  11.2494
  12155.853  12155.850  0.500  0.853193  58.5696  24.9537  11.2452
  12165.900  12165.890  0.500  0.848651  58.4378  25.0109  11.2759
  12176.105  12176.100  0.500  0.843284  58.2913  25.0825  11.3403
  12186.483  12186.490  0.500  0.838090  58.1525  25.1531  11.4159
  12197.060  12197.050  0.500  0.833015  58.0106  25.2193  11.4795
  12207.792  12207.780  0.500  0.828377  57.884  25.2813  11.5254
  12218.693  12218.680  0.500  0.824355  57.7408  25.3204  11.5492
  12229.757  12229.750  0.500  0.820992  57.6023  25.3447  11.5678
  12241.024  12240.990  0.500  0.818114  57.4008  25.3289  11.5811
  12252.443  12252.410  0.500  0.815491  57.2897  25.3462  11.6233
  12264.027  12263.990  0.500  0.812343  56.1967  24.9411  11.4778
  12275.765  12275.750  0.500  0.809004  56.9841  25.3751  11.6967
  12287.684  12287.680  0.500  0.805129  56.7826  25.3835  11.7087
  12299.784  12299.780  0.500  0.801040  56.4725  25.3483  11.6949
  12312.061  12312.050  0.500  0.796275  56.4834  25.4743  11.7565
  12324.507  12324.490  0.500  0.791609  56.1999  25.465  11.7688
  12337.152  12337.110  0.500  0.786644  56.1443  25.5665  11.8453
  12349.910  12349.890  0.500  0.781751  55.8484  25.5565  11.8753
  12362.867  12362.850  0.500  0.777253  55.8176  25.6575  11.9536
  12375.992  12375.980  0.500  0.772802  55.6592  25.6988  11.9918
  12389.319  12389.280  0.500  0.768835  55.5113  25.7324  12.0234
  12402.789  12402.750  0.500  0.764895  55.3266  25.7481  12.0443
  12416.403  12416.400  0.500  0.761124  55.1414  25.7588  12.0728
  12430.216  12430.210  0.500  0.757093  54.9449  25.7707  12.1099
  12444.235  12444.200  0.500  0.753074  55.0143  25.9071  12.2032
  12458.388  12458.360  0.500  0.748734  54.837  25.936  12.2456
  12472.695  12472.690  0.500  0.744167  54.6503  25.966  12.2763
  12487.226  12487.190  0.500  0.739516  54.2416  25.8919  12.2548
  12501.901  12501.860  0.500  0.734589  54.2902  26.0432  12.3399
  12516.726  12516.700  0.500  0.729859  54.1026  26.0762  12.3789
  12531.738  12531.720  0.500  0.724916  53.9074  26.1109  12.4232
  12546.923  12546.900  0.500  0.720497  53.7367  26.1434  12.473
  12562.297  12562.260  0.500  0.715864  53.5391  26.1683  12.5109
  12577.826  12577.790  0.500  0.711710  53.3326  26.1759  12.5404
  12593.519  12593.490  0.500  0.707332  53.1527  26.202  12.574
  12609.383  12609.360  0.500  0.703075  52.9567  26.2168  12.603
  12625.469  12625.410  0.500  0.698548  52.7525  26.2342  12.6349
  12641.658  12641.620  0.500  0.693971  52.5195  26.2381  12.6662
  12658.044  12658.010  0.500  0.689346  52.3743  26.2869  12.7183
  12674.612  12674.570  0.500  0.684574  52.1746  26.3119  12.758
  12691.330  12691.300  0.500  0.679816  51.9665  26.332  12.792
  12708.233  12708.200  0.500  0.674992  51.765  26.3567  12.8236
  12719.586  12719.560  0.500  0.671684  51.6256  26.3728  12.8469