File: xdidata/As/As-K-DisodiumMethylArsenate.xdi
# XDI/1.0 BlueSky/1.10.0 BMM/2023-1.0-py310-tiled
# Beamline.name: BMM (06BM) -- Beamline for Materials Measurement (NIST)
# Beamline.xray_source: NSLS-II three-pole wiggler
# Beamline.collimation: paraboloid mirror, 5 nm Rh on 30 nm Pt
# Beamline.focusing: not in use
# Beamline.harmonic_rejection: flat mirror, Pt stripe, pitch = 7.0 mrad relative to beam
# Beamline.software: Bluesky 1.10.0, Ophyd 1.7.0, DataBroker 2.0.0b13, Python 3.10.8, 2023-1.0-py310-tiled
# Detector.I0: 10 cm N2
# Detector.I1: 25 cm N2
# Detector.I2: 25 cm N2
# Element.symbol: As
# Element.edge: K
# Element.reference: As
# Element.reference_material: As2O3
# Facility.name: NSLS-II
# Facility.energy: 3.0
# Facility.current: 399.5
# Facility.mode: top-off
# Facility.GUP: 301027
# Facility.SAF: 310583
# Facility.cycle: 2023-2
# Mono.name: Si(111)
# Mono.d_spacing: 3.13519
# Mono.encoder_resolution: 0.0000050 deg/ct
# Mono.angle_offset: 16.0754 deg
# Mono.scan_mode: pseudo channel cut
# Mono.scan_type: step
# Mono.direction: forward in energy
# Sample.name: CH3AsNa2O3
# Sample.prep: powder in PEG pellet
# Sample.x: 115.008 mm
# Sample.y: 114.461 mm
# Sample.SDD_position: 170.000 mm
# Scan.experimenters: Bruce Ravel
# Scan.edge_energy: 11866.7
# Scan.start_time: 2023-07-10T16:36:55
# Scan.end_time: 2023-07-10T16:44:42
# Scan.transient_id: 90291
# Scan.uid: 3eb41b49-2685-4329-9fbe-431ac868b727
# Scan.plot_hint: ln(I0/It)  --  ln($5/$6)
# Column.1: energy eV
# Column.2: requested_energy eV
# Column.3: measurement_time seconds
# Column.4: xmu
# Column.5: I0 nA
# Column.6: It nA
# Column.7: Ir nA
# ///////////
# sample courtesy Evan Jahrman, NIST
# -----------
# energy  requested_energy  measurement_time  xmu  I0  It  Ir
  11666.689  11666.700  0.500  0.147228  64.8502  55.972  38.0169
  11696.724  11696.700  0.500  0.141184  64.4943  56.0023  38.139
  11726.749  11726.700  0.500  0.135473  64.0819  55.9629  38.2174
  11756.720  11756.700  0.500  0.129719  63.5765  55.8419  38.2257
  11786.738  11786.700  0.500  0.124422  63.2943  55.8893  38.3397
  11816.754  11816.700  0.500  0.120204  62.8601  55.7405  38.2782
  11838.698  11838.700  0.500  0.119241  62.5885  55.5532  38.0715
  11844.678  11844.700  0.500  0.120150  62.5047  55.4284  37.9088
  11850.676  11850.700  0.500  0.122485  62.4199  55.2241  37.6176
  11856.668  11856.700  0.500  0.127887  62.1809  54.7163  36.9466
  11857.555  11857.600  0.500  0.129189  62.2902  54.7411  36.8819
  11858.455  11858.500  0.500  0.130754  62.2826  54.6489  36.7281
  11859.367  11859.400  0.500  0.132415  62.0809  54.3814  36.4372
  11860.279  11860.300  0.500  0.134654  61.9436  54.1399  36.1455
  11861.185  11861.200  0.500  0.137341  62.2647  54.2745  36.0699
  11862.097  11862.100  0.500  0.140296  62.3488  54.1874  35.8251
  11862.979  11863.000  0.500  0.143795  62.2513  53.9137  35.4149
  11863.879  11863.900  0.500  0.148127  62.3006  53.7231  34.9992
  11864.773  11864.800  0.500  0.153439  62.4053  53.5283  34.5041
  11865.686  11865.700  0.500  0.160566  62.4242  53.1643  33.7685
  11866.581  11866.600  0.500  0.169588  62.4043  52.67  32.7962
  11867.494  11867.500  0.500  0.182150  62.383  51.9948  31.4389
  11868.407  11868.400  0.500  0.198851  62.3843  51.1346  29.647
  11869.296  11869.300  0.500  0.222448  62.3619  49.9242  27.1752
  11870.185  11870.200  0.500  0.258416  62.311  48.1212  23.7875
  11871.093  11871.100  0.500  0.321284  62.1655  45.0835  19.3195
  11872.000  11872.000  0.500  0.438896  62.1985  40.1023  14.6446
  11872.902  11872.900  0.500  0.667959  62.2796  31.9341  10.4873
  11873.798  11873.800  0.500  1.061950  62.3074  21.5447  7.006637
  11874.700  11874.700  0.500  1.582781  62.3032  12.7973  4.357641
  11875.596  11875.600  0.500  1.941524  62.2901  8.937696  3.170340
  11876.486  11876.500  0.500  1.847277  62.2762  9.818840  3.574909
  11877.400  11877.400  0.500  1.544070  62.2659  13.2944  5.045724
  11878.315  11878.300  0.500  1.303561  62.2346  16.9006  6.739217
  11879.206  11879.200  0.500  1.185834  62.2154  19.0063  7.894987
  11880.102  11880.100  0.500  1.142950  62.1978  19.8335  8.441821
  11881.018  11881.000  0.500  1.122002  62.1927  20.2516  8.649711
  11881.896  11881.900  0.500  1.094048  62.1611  20.8152  8.736861
  11882.787  11882.800  0.500  1.060556  62.1513  21.5207  8.790039
  11883.697  11883.700  0.500  1.025516  62.0886  22.2657  8.931937
  11884.612  11884.600  0.500  0.989096  61.787  22.9794  9.220807
  11885.504  11885.500  0.500  0.955257  61.4188  23.6286  9.592196
  11886.408  11886.400  0.500  0.935709  61.5315  24.1393  9.918023
  11887.311  11887.300  0.500  0.934696  61.8658  24.295  10.0557
  11888.191  11888.200  0.500  0.949193  61.9937  23.9948  9.979154
  11889.089  11889.100  0.500  0.972995  62.0132  23.4379  9.789173
  11889.993  11890.000  0.500  0.996167  62.0005  22.8963  9.629881
  11890.904  11890.900  0.500  1.006380  61.9933  22.661  9.622483
  11891.704  11891.700  0.500  0.998723  61.9728  22.8277  9.761083
  11894.720  11894.710  0.500  0.909593  61.9357  24.9408  10.9428
  11897.923  11897.900  0.500  0.856396  61.8896  26.2839  11.7572
  11901.263  11901.260  0.500  0.781693  61.5845  28.1829  12.6533
  11904.802  11904.780  0.500  0.725044  61.751  29.9062  13.539
  11908.480  11908.480  0.500  0.689209  61.7521  30.9979  14.1558
  11912.369  11912.350  0.500  0.678454  61.6913  31.3022  14.2907
  11916.422  11916.400  0.500  0.687646  61.4048  30.8718  13.8657
  11920.626  11920.610  0.500  0.721956  61.5944  29.9226  13.3135
  11925.019  11924.990  0.500  0.748667  61.5478  29.1119  12.8451
  11929.551  11929.550  0.500  0.758765  61.4876  28.7912  12.5346
  11934.292  11934.280  0.500  0.780206  61.177  28.0381  12.1325
  11939.203  11939.180  0.500  0.801157  61.3261  27.5237  11.8695
  11944.268  11944.250  0.500  0.816858  61.274  27.072  11.6439
  11949.499  11949.490  0.500  0.828213  61.2203  26.7428  11.4893
  11954.908  11954.910  0.500  0.827381  61.1375  26.7289  11.5745
  11960.503  11960.490  0.500  0.822408  61.0653  26.8304  11.6749
  11966.216  11966.250  0.500  0.815996  60.972  26.9617  11.7972
  11972.146  11972.180  0.500  0.803413  60.8859  27.2646  11.9788
  11978.257  11978.280  0.500  0.790614  60.798  27.5759  12.1636
  11984.575  11984.550  0.500  0.776388  60.6876  27.9202  12.3816
  11990.993  11990.990  0.500  0.762346  60.5887  28.2689  12.5944
  11997.594  11997.600  0.500  0.752518  60.5198  28.5156  12.7228
  12004.396  12004.390  0.500  0.747391  60.4489  28.6286  12.7504
  12011.357  12011.350  0.500  0.746582  60.3653  28.6122  12.6846
  12018.465  12018.470  0.500  0.748538  60.4645  28.6032  12.6332
  12025.776  12025.770  0.500  0.751625  60.3621  28.4667  12.545
  12033.241  12033.250  0.500  0.754619  60.2512  28.3295  12.467
  12040.898  12040.890  0.500  0.757964  60.138  28.1818  12.407
  12048.705  12048.700  0.500  0.760716  58.3076  27.249  12.0282
  12056.686  12056.690  0.500  0.760633  59.8834  27.9877  12.4002
  12064.869  12064.850  0.500  0.759433  59.7941  27.9795  12.4289
  12073.176  12073.170  0.500  0.755988  59.6775  28.0214  12.4574
  12081.674  12081.670  0.500  0.751865  59.553  28.0784  12.5043
  12090.342  12090.350  0.500  0.746764  59.4184  28.1582  12.5706
  12099.176  12099.190  0.500  0.741162  59.3277  28.2732  12.6432
  12108.209  12108.200  0.500  0.736038  59.21  28.3621  12.7049
  12117.408  12117.390  0.500  0.730505  59.0814  28.4575  12.7802
  12126.782  12126.750  0.500  0.725727  58.9443  28.5274  12.8306
  12136.279  12136.270  0.500  0.721517  58.8354  28.5949  12.8677
  12145.997  12145.970  0.500  0.718000  58.7024  28.6307  12.8671
  12155.886  12155.850  0.500  0.715082  58.566  28.6477  12.8533
  12165.919  12165.890  0.500  0.712444  58.4347  28.6589  12.8661
  12176.124  12176.100  0.500  0.709949  58.2962  28.6625  12.9045
  12186.528  12186.490  0.500  0.707745  58.1554  28.6563  12.9494
  12197.073  12197.050  0.500  0.705476  58.0066  28.6479  12.9844
  12207.812  12207.780  0.500  0.702854  57.8725  28.6568  13.0085
  12218.706  12218.680  0.500  0.699633  57.7384  28.6826  13.0258
  12229.764  12229.750  0.500  0.696253  57.6105  28.7159  13.0493
  12241.011  12240.990  0.500  0.691868  57.3998  28.7366  13.079
  12252.410  12252.410  0.500  0.687317  57.2827  28.8088  13.1513
  12263.995  12263.990  0.500  0.682738  56.2306  28.4095  13.0143
  12275.765  12275.750  0.500  0.677552  56.9802  28.9379  13.2813
  12287.704  12287.680  0.500  0.672657  56.7843  28.9799  13.3142
  12299.778  12299.780  0.500  0.667520  56.4685  28.9671  13.3044
  12312.054  12312.050  0.500  0.663074  56.4827  29.1036  13.3732
  12324.514  12324.490  0.500  0.658993  56.1973  29.0749  13.3782
  12337.132  12337.110  0.500  0.655018  56.1492  29.1657  13.4519
  12349.910  12349.890  0.500  0.651404  55.8555  29.1182  13.4694
  12362.860  12362.850  0.500  0.647862  55.8191  29.2025  13.5413
  12376.012  12375.980  0.500  0.644445  55.6638  29.2209  13.5759
  12389.312  12389.280  0.500  0.640654  55.5158  29.2539  13.6074
  12402.762  12402.750  0.500  0.636785  55.3334  29.2708  13.6316
  12416.410  12416.400  0.500  0.632773  55.1315  29.2813  13.6612
  12430.229  12430.210  0.500  0.628073  54.9461  29.3203  13.712
  12444.221  12444.200  0.500  0.623419  54.8121  29.3852  13.7791
  12458.401  12458.360  0.500  0.618454  54.6242  29.4302  13.8297
  12472.695  12472.690  0.500  0.613607  54.4521  29.4801  13.8741
  12487.206  12487.190  0.500  0.608568  54.0378  29.4036  13.8512
  12501.901  12501.860  0.500  0.603800  54.0908  29.5731  13.9475
  12516.740  12516.700  0.500  0.599258  53.8986  29.6022  13.9873
  12531.738  12531.720  0.500  0.594780  53.7136  29.633  14.0348
  12546.923  12546.900  0.500  0.590703  53.5352  29.6552  14.0809
  12562.297  12562.260  0.500  0.586544  53.336  29.6679  14.1196
  12577.854  12577.790  0.500  0.582371  53.1259  29.6747  14.1494
  12593.526  12593.490  0.500  0.578295  52.9564  29.7008  14.186
  12609.383  12609.360  0.500  0.573883  52.7536  29.7179  14.2188
  12625.434  12625.410  0.500  0.569409  52.5506  29.7363  14.2559
  12641.672  12641.620  0.500  0.564924  52.3159  29.7365  14.2876
  12658.030  12658.010  0.500  0.560027  52.1658  29.7968  14.3496
  12674.619  12674.570  0.500  0.555085  51.9618  29.8273  14.3927
  12691.344  12691.300  0.500  0.550300  51.759  29.8534  14.4352
  12708.219  12708.200  0.500  0.545454  51.5461  29.875  14.4669
  12719.600  12719.560  0.500  0.542368  51.3986  29.8816  14.4868