File: xdidata/As/As-K-PotassiumAresenate.xdi
# XDI/1.0 BlueSky/1.10.0 BMM/2023-1.0-py310-tiled
# Beamline.name: BMM (06BM) -- Beamline for Materials Measurement (NIST)
# Beamline.xray_source: NSLS-II three-pole wiggler
# Beamline.collimation: paraboloid mirror, 5 nm Rh on 30 nm Pt
# Beamline.focusing: not in use
# Beamline.harmonic_rejection: flat mirror, Pt stripe, pitch = 7.0 mrad relative to beam
# Beamline.software: Bluesky 1.10.0, Ophyd 1.7.0, DataBroker 2.0.0b13, Python 3.10.8, 2023-1.0-py310-tiled
# Detector.I0: 10 cm N2
# Detector.I1: 25 cm N2
# Detector.I2: 25 cm N2
# Element.symbol: As
# Element.edge: K
# Element.reference: As
# Element.reference_material: As2O3
# Facility.name: NSLS-II
# Facility.energy: 3.0
# Facility.current: 400.1
# Facility.mode: top-off
# Facility.GUP: 301027
# Facility.SAF: 310583
# Facility.cycle: 2023-2
# Mono.name: Si(111)
# Mono.d_spacing: 3.13519
# Mono.encoder_resolution: 0.0000050 deg/ct
# Mono.angle_offset: 16.0754 deg
# Mono.scan_mode: pseudo channel cut
# Mono.scan_type: step
# Mono.direction: forward in energy
# Sample.name: K3AsO4.12H2O
# Sample.prep: powder in PEG pellet
# Sample.x: 115.008 mm
# Sample.y: 114.461 mm
# Sample.SDD_position: 170.000 mm
# Scan.experimenters: Bruce Ravel
# Scan.edge_energy: 11866.7
# Scan.start_time: 2023-07-10T16:03:00
# Scan.end_time: 2023-07-10T16:11:01
# Scan.transient_id: 90271
# Scan.uid: 07f5fce9-94da-4d0c-afa2-77c2b7fbf873
# Scan.plot_hint: ln(I0/It)  --  ln($5/$6)
# Column.1: energy eV
# Column.2: requested_energy eV
# Column.3: measurement_time seconds
# Column.4: xmu
# Column.5: I0 nA
# Column.6: It nA
# Column.7: Ir nA
# ///////////
# sample courtesy Evan Jahrman, NIST
# -----------
# energy  requested_energy  measurement_time  xmu  I0  It  Ir
  11666.695  11666.700  0.500  0.300908  65.1137  48.1937  32.7459
  11696.772  11696.700  0.500  0.293864  64.7354  48.2523  32.8738
  11726.689  11726.700  0.500  0.287146  64.3168  48.2635  32.9697
  11756.732  11756.700  0.500  0.280547  63.7928  48.1872  32.9987
  11786.726  11786.700  0.500  0.274513  63.5177  48.2697  33.1263
  11816.772  11816.700  0.500  0.269586  63.0462  48.1481  33.0762
  11838.655  11838.700  0.500  0.269564  62.7821  47.9475  32.8738
  11844.654  11844.700  0.500  0.271125  62.7007  47.8106  32.7128
  11850.646  11850.700  0.500  0.274800  62.6115  47.5674  32.4161
  11856.650  11856.700  0.500  0.283147  62.3748  46.9937  31.7404
  11857.549  11857.600  0.500  0.285062  62.4727  46.9775  31.6644
  11858.455  11858.500  0.500  0.287436  62.4612  46.8574  31.5073
  11859.354  11859.400  0.500  0.290109  62.2398  46.5667  31.2139
  11860.254  11860.300  0.500  0.293393  62.1251  46.3285  30.9424
  11861.160  11861.200  0.500  0.297236  62.2439  46.239  30.7413
  11862.072  11862.100  0.500  0.301840  62.3081  46.0741  30.4724
  11862.979  11863.000  0.500  0.307197  62.2128  45.7579  30.0587
  11863.891  11863.900  0.500  0.313898  62.2667  45.4916  29.6352
  11864.792  11864.800  0.500  0.322419  62.3621  45.1748  29.1103
  11865.699  11865.700  0.500  0.333266  62.3684  44.6919  28.3755
  11866.599  11866.600  0.500  0.347814  62.3413  44.0273  27.387
  11867.488  11867.500  0.500  0.367624  62.3171  43.1469  26.0801
  11868.389  11868.400  0.500  0.395891  62.2926  41.9279  24.2888
  11869.284  11869.300  0.500  0.438534  62.2674  40.1613  21.8529
  11870.185  11870.200  0.500  0.512998  62.2145  37.2477  18.3896
  11871.087  11871.100  0.500  0.652581  62.0662  32.3179  13.9612
  11871.982  11872.000  0.500  0.901797  62.1074  25.2057  9.333110
  11872.884  11872.900  0.500  1.201368  62.1895  18.7055  6.161033
  11873.798  11873.800  0.500  1.451482  62.2006  14.5688  4.755095
  11874.700  11874.700  0.500  1.764351  62.402  10.6893  3.687352
  11875.596  11875.600  0.500  2.267705  62.3969  6.461170  2.339224
  11876.510  11876.500  0.500  2.704933  62.375  4.171314  1.549754
  11877.407  11877.400  0.500  2.548264  62.3676  4.878224  1.875077
  11878.309  11878.300  0.500  2.108408  62.33  7.568800  3.049559
  11879.193  11879.200  0.500  1.784230  62.3162  10.4645  4.379405
  11880.096  11880.100  0.500  1.603849  62.2923  12.5283  5.362599
  11880.993  11881.000  0.500  1.522216  62.2761  13.5904  5.832920
  11881.896  11881.900  0.500  1.488920  62.261  14.0471  5.925086
  11882.793  11882.800  0.500  1.472916  62.2382  14.2685  5.857253
  11883.697  11883.700  0.500  1.463437  62.178  14.3904  5.809477
  11884.606  11884.600  0.500  1.457283  61.8461  14.402  5.819165
  11885.504  11885.500  0.500  1.435440  61.5185  14.642  5.978266
  11886.414  11886.400  0.500  1.398289  61.6396  15.2262  6.286613
  11887.318  11887.300  0.500  1.369269  61.9785  15.7607  6.557036
  11888.209  11888.200  0.500  1.355327  62.0949  16.012  6.690178
  11889.101  11889.100  0.500  1.347410  62.1018  16.141  6.775238
  11890.006  11890.000  0.500  1.340367  62.0937  16.253  6.870936
  11890.898  11890.900  0.500  1.338496  62.0925  16.2831  6.952669
  11891.704  11891.700  0.500  1.341447  62.0734  16.2301  6.981989
  11894.733  11894.710  0.500  1.348160  62.0284  16.1099  7.110820
  11897.911  11897.900  0.500  1.333935  61.9776  16.3273  7.335392
  11901.257  11901.260  0.500  1.220777  61.663  18.1906  8.198542
  11904.802  11904.780  0.500  1.113199  61.8459  20.3168  9.233102
  11908.492  11908.480  0.500  1.036132  61.8411  21.9427  10.0556
  11912.369  11912.350  0.500  0.996903  61.7872  22.8008  10.4466
  11916.416  11916.400  0.500  1.014211  61.4793  22.2978  10.0533
  11920.620  11920.610  0.500  1.056356  61.6728  21.4449  9.577277
  11925.007  11924.990  0.500  1.102209  61.6341  20.4709  9.070167
  11929.557  11929.550  0.500  1.134681  61.5717  19.7968  8.654428
  11934.298  11934.280  0.500  1.163936  61.2208  19.1165  8.309471
  11939.191  11939.180  0.500  1.204787  61.4157  18.4097  7.975275
  11944.268  11944.250  0.500  1.218623  61.3602  18.1404  7.836798
  11949.511  11949.490  0.500  1.231867  61.2904  17.8813  7.716283
  11954.908  11954.910  0.500  1.231453  61.2167  17.8672  7.771591
  11960.510  11960.490  0.500  1.225988  61.1436  17.9437  7.844748
  11966.260  11966.250  0.500  1.231304  61.0562  17.823  7.834922
  11972.196  11972.180  0.500  1.216839  60.9749  18.0586  7.969742
  11978.301  11978.280  0.500  1.187527  60.8956  18.5716  8.226517
  11984.556  11984.550  0.500  1.161369  60.797  19.033  8.475992
  11990.999  11990.990  0.500  1.139048  60.7032  19.4325  8.694674
  11997.619  11997.600  0.500  1.128563  60.6162  19.6092  8.786624
  12004.415  12004.390  0.500  1.121001  60.5264  19.7288  8.822486
  12011.363  12011.350  0.500  1.118533  60.4371  19.7483  8.791397
  12018.477  12018.470  0.500  1.121987  60.3488  19.6515  8.717566
  12025.788  12025.770  0.500  1.127773  60.2516  19.5067  8.636514
  12033.279  12033.250  0.500  1.135928  60.152  19.3163  8.539764
  12040.917  12040.890  0.500  1.141588  60.0335  19.1694  8.478938
  12048.718  12048.700  0.500  1.145775  58.2527  18.523  8.213920
  12056.712  12056.690  0.500  1.147272  59.792  18.9841  8.449931
  12064.875  12064.850  0.500  1.147970  59.6929  18.9394  8.450082
  12073.176  12073.170  0.500  1.144333  59.5798  18.9724  8.472999
  12081.686  12081.670  0.500  1.137502  59.4639  19.0652  8.529086
  12090.368  12090.350  0.500  1.128256  59.3333  19.2001  8.609696
  12099.221  12099.190  0.500  1.120177  59.2351  19.3238  8.678589
  12108.221  12108.200  0.500  1.113166  59.1205  19.4221  8.739248
  12117.402  12117.390  0.500  1.105796  58.9973  19.525  8.806846
  12126.743  12126.750  0.500  1.099690  58.8544  19.597  8.853815
  12136.253  12136.270  0.500  1.093419  58.7497  19.6852  8.897150
  12145.965  12145.970  0.500  1.088727  58.6247  19.7357  8.907243
  12155.860  12155.850  0.500  1.086423  58.4857  19.7343  8.893821
  12165.906  12165.890  0.500  1.084828  58.346  19.7186  8.890669
  12176.131  12176.100  0.500  1.083435  58.2053  19.6985  8.907882
  12186.502  12186.490  0.500  1.081071  58.0663  19.6979  8.939873
  12197.054  12197.050  0.500  1.077881  57.9302  19.7146  8.973055
  12207.812  12207.780  0.500  1.074500  57.9997  19.805  9.026029
  12218.713  12218.680  0.500  1.070862  57.8536  19.8272  9.042683
  12229.803  12229.750  0.500  1.066202  57.7102  19.8704  9.067874
  12241.011  12240.990  0.500  1.060230  57.5126  19.921  9.105822
  12252.410  12252.410  0.500  1.053698  57.395  20.0105  9.173100
  12264.040  12263.990  0.500  1.047167  56.2294  19.7326  9.077234
  12275.785  12275.750  0.500  1.040675  57.0906  20.1653  9.292258
  12287.710  12287.680  0.500  1.034912  56.8883  20.21  9.321862
  12299.857  12299.780  0.500  1.029400  56.5886  20.2147  9.323191
  12312.047  12312.050  0.500  1.024376  56.5939  20.3184  9.373582
  12324.494  12324.490  0.500  1.019427  56.3179  20.3196  9.386322
  12337.132  12337.110  0.500  1.015100  56.2573  20.3857  9.442075
  12349.923  12349.890  0.500  1.010710  55.9617  20.3679  9.459900
  12362.880  12362.850  0.500  1.006301  55.935  20.4481  9.520741
  12376.025  12375.980  0.500  1.001795  55.7771  20.4824  9.555065
  12389.332  12389.280  0.500  0.997129  55.6258  20.5224  9.583033
  12402.782  12402.750  0.500  0.992223  55.4508  20.5585  9.612450
  12416.437  12416.400  0.500  0.986951  55.2504  20.5925  9.644888
  12430.249  12430.210  0.500  0.981165  55.0648  20.6424  9.691881
  12444.242  12444.200  0.500  0.975117  54.9333  20.718  9.754237
  12458.388  12458.360  0.500  0.968963  54.7503  20.7764  9.801231
  12472.716  12472.690  0.500  0.963063  54.5638  20.8282  9.840844
  12487.213  12487.190  0.500  0.957310  54.1687  20.7967  9.834889
  12501.901  12501.860  0.500  0.951792  54.2127  20.9287  9.909814
  12516.746  12516.700  0.500  0.946380  54.0263  20.97  9.945798
  12531.751  12531.720  0.500  0.940861  53.837  21.0121  9.989971
  12546.930  12546.900  0.500  0.935605  53.6627  21.0545  10.0349
  12562.304  12562.260  0.500  0.930310  53.4654  21.0884  10.0752
  12577.840  12577.790  0.500  0.925162  53.2609  21.1162  10.1068
  12593.533  12593.490  0.500  0.919973  53.0833  21.1553  10.1423
  12609.390  12609.360  0.500  0.914485  52.8876  21.1933  10.1774
  12625.448  12625.410  0.500  0.909029  52.687  21.2284  10.2158
  12641.658  12641.620  0.500  0.903224  52.4466  21.2545  10.2505
  12658.057  12658.010  0.500  0.897278  52.3085  21.325  10.3078
  12674.633  12674.570  0.500  0.891324  52.104  21.3685  10.3506
  12691.344  12691.300  0.500  0.885559  51.9024  21.4089  10.3903
  12708.226  12708.200  0.500  0.879683  51.6953  21.4491  10.4243
  12719.607  12719.560  0.500  0.875865  51.5585  21.4742  10.4476