File: xdidata/As/As-K-Orpiment.xdi
# XDI/1.0 BlueSky/1.5.3
# Beamline.name: 6BM
# Beamline.xray_source: NSLS-II three-pole wiggler
# Beamline.collimation: paraboloid mirror, 5 nm Rh on 30 nm Pt
# Beamline.focusing: not in use
# Beamline.harmonic_rejection: flat mirror, Pt stripe, pitch = 7.0 mrad relative to beam
# Detector.i0: 10 cm N2
# Detector.i1: 25 cm N2
# Detector.i2: 25 cm N2
# Element.symbol: As
# Element.edge: K
# Facility.name: NSLS-II
# Facility.energy: 3.0
# Facility.current: 400.0
# Facility.mode: top-off
# Facility.gup: 301027
# Facility.saf: 304793
# Mono.name: Si(111)
# Mono.d_spacing: 3.13532
# Mono.encoder_resolution: 0.0000050 deg/ct
# Mono.angle_offset: 16.0581 deg
# Mono.scan_mode: pseudo channel cut
# Mono.scan_type: step
# Mono.direction: forward in energy
# Sample.name: As2S3
# Sample.prep: Powder in polyethylene glycol pellet
# Sample.x_position: -54.942 mm
# Sample.y_position: 110.034 mm
# Sample.wheel_position: -150.484 mm
# Scan.experimenters: Bruce Ravel
# Scan.edge_energy: 11867.0
# Scan.start_time: 2019-10-19T09:48:11
# Scan.end_time: 2019-10-19T10:23:41
# Scan.transient_id: 15434
# Scan.uid: 8a00cd32-dea6-44c2-8355-135f13b4f384
# Scan.plot_hint: ln(I0/It)  --  ln($5/$6)
# Scan.sequence: merge of 3 scans
# Column.1: energy eV
# Column.2: requested_energy eV
# Column.3: measurement_time seconds
# Column.4: mutrans
# Column.5: i0
# Column.6: itrans
# Column.7: irefer
# /////
#  prepped by Sarah, 1/2 degree away from previous run for better alignment
# -----
# energy   requested_energy   measurement_time   mutrans   i0   itrans   irefer
11667 11667 1.000000 -0.291505 91.0434 121.856 80.711
11697.1 11697 1.000000 -0.294270 90.2379 121.113 80.4507
11727 11727 1.000000 -0.296900 89.2763 120.137 80.0289
11757 11757 1.000000 -0.299573 88.3274 119.179 79.5902
11787 11787 1.000000 -0.302162 87.4167 118.256 79.1358
11817 11817 1.000000 -0.304419 86.4432 117.203 78.485
11839 11839 1.000000 -0.305550 85.7301 116.368 77.5949
11845 11845 1.000000 -0.305394 85.3626 115.851 76.9477
11851 11851 1.000000 -0.304695 85.3037 115.69 76.2432
11857 11857 1.000000 -0.301986 84.7888 114.681 74.1529
11857.9 11857.9 1.000000 -0.301110 84.5851 114.305 73.5342
11858.8 11858.8 1.000000 -0.300083 84.6435 114.267 73.0532
11859.7 11859.7 1.000000 -0.298720 84.8826 114.43 72.5912
11860.6 11860.6 1.000000 -0.296775 84.9204 114.262 71.7962
11861.5 11861.5 1.000000 -0.294139 85.0314 114.109 70.796
11862.4 11862.4 1.000000 -0.290348 84.992 113.629 69.3462
11863.3 11863.3 1.000000 -0.284384 84.9036 112.834 67.3039
11864.2 11864.2 1.000000 -0.275059 84.9918 111.917 64.7203
11865.1 11865.1 1.000000 -0.258371 84.931 109.97 60.7541
11866 11866 1.000000 -0.226831 84.8211 106.384 54.928
11866.9 11866.9 1.000000 -0.166012 84.7474 100.083 46.4229
11867.8 11867.8 1.000000 -0.084443 84.6409 92.1015 35.7353
11868.7 11868.7 1.000000 -0.043042 84.4575 88.1742 26.2425
11869.6 11869.6 1.000000 -0.071285 84.5457 90.7916 21.1787
11870.5 11870.5 1.000000 -0.118263 84.7113 95.3753 20.7152
11871.4 11871.4 1.000000 -0.158862 84.6736 99.2522 23.076
11872.3 11872.3 1.000000 -0.189544 84.5709 102.235 26.1058
11873.2 11873.2 1.000000 -0.205466 84.6197 103.919 28.2968
11874.1 11874.1 1.000000 -0.205254 84.5101 103.774 29.7938
11875 11875 1.000000 -0.196970 84.4588 102.859 31.4403
11875.9 11875.9 1.000000 -0.189511 84.4166 102.028 33.2336
11876.8 11876.8 1.000000 -0.185921 84.3966 101.64 34.697
11877.7 11877.7 1.000000 -0.186141 84.2605 101.5 35.349
11878.6 11878.6 1.000000 -0.188491 84.297 101.787 35.074
11879.5 11879.5 1.000000 -0.191356 84.1813 101.932 33.7737
11880.4 11880.4 1.000000 -0.193999 84.0677 102.063 32.3956
11881.3 11881.3 1.000000 -0.195759 83.6446 101.73 31.7352
11882.2 11882.2 1.000000 -0.196746 83.2382 101.336 31.9163
11883.1 11883.1 1.000000 -0.197193 83.5182 101.723 32.6975
11884 11884 1.000000 -0.197476 83.9498 102.278 33.396
11884.9 11884.9 1.000000 -0.197833 84.1097 102.51 33.7771
11885.8 11885.8 1.000000 -0.198246 84.1129 102.556 34.0105
11886.7 11886.7 1.000000 -0.198790 84.1728 102.684 34.3432
11887.6 11887.6 1.000000 -0.199547 84.1303 102.709 34.8287
11888.5 11888.5 1.000000 -0.200363 84.2475 102.936 35.4414
11889.4 11889.4 1.000000 -0.201427 84.1821 102.967 35.8255
11890.3 11890.3 1.000000 -0.202371 84.0708 102.929 36.0991
11891.2 11891.2 1.000000 -0.203341 84.0607 103.017 36.5758
11892.1 11892.1 1.000000 -0.204180 84.0563 103.097 37.2515
11893 11893 1.000000 -0.205055 83.8835 102.974 37.7693
11893.9 11893.9 1.000000 -0.205828 83.9302 103.111 38.1251
11894.8 11894.8 1.000000 -0.206685 83.8988 103.161 38.2189
11895.7 11895.7 1.000000 -0.207451 83.8842 103.221 38.2321
11896.6 11896.6 1.000000 -0.208274 83.8022 103.207 38.2394
11898.1 11898.1 1.000000 -0.209631 83.7266 103.254 38.3463
11901.5 11901.4 1.000000 -0.211988 82.7976 102.349 38.3319
11905 11905 1.000000 -0.212754 83.4464 103.23 39.1328
11908.6 11908.6 1.000000 -0.211776 83.3591 103.021 39.2006
11912.5 11912.5 1.000000 -0.208138 83.1019 102.33 38.0884
11916.6 11916.5 1.000000 -0.204128 82.9147 101.69 37.1644
11920.8 11920.8 1.000000 -0.201932 82.8812 101.427 36.7613
11925.2 11925.1 1.000000 -0.201126 82.8175 101.267 35.9856
11929.7 11929.7 1.000000 -0.201293 82.7235 101.169 35.5078
11934.4 11934.4 1.000000 -0.202633 82.3543 100.852 35.1393
11939.3 11939.3 1.000000 -0.205113 82.4574 101.23 35.2241
11944.4 11944.4 1.000000 -0.208156 82.3905 101.456 35.116
11949.6 11949.6 1.000000 -0.211097 82.2569 101.59 35.4142
11955 11955 1.000000 -0.213108 82.1798 101.699 35.8414
11960.6 11960.6 1.000000 -0.213929 81.8184 101.335 35.9825
11966.3 11966.3 1.000000 -0.213605 81.7385 101.203 36.1712
11972.3 11972.3 1.000000 -0.212471 81.7091 101.052 36.3275
11978.4 11978.4 1.000000 -0.211288 81.513 100.69 36.3989
11984.6 11984.6 1.000000 -0.210329 81.4395 100.503 36.6394
11991 11991 1.000000 -0.209546 81.2638 100.208 36.6781
11997.7 11997.7 1.000000 -0.209785 81.1405 100.08 36.6408
12004.5 12004.4 1.000000 -0.211677 80.8697 99.9348 36.392
12011.4 12011.4 1.000000 -0.214223 80.7293 100.016 36.1529
12018.5 12018.5 1.000000 -0.216636 80.3953 99.8417 35.9264
12025.8 12025.8 1.000000 -0.218449 80.1282 99.6906 35.7631
12033.3 12033.3 1.000000 -0.219290 79.867 99.4498 35.6183
12040.9 12040.9 1.000000 -0.219413 79.6565 99.1998 35.6122
12048.7 12048.7 1.000000 -0.219335 79.266 98.7058 35.613
12056.7 12056.7 1.000000 -0.219234 79.217 98.6348 35.7729
12064.9 12064.8 1.000000 -0.219496 78.9759 98.3607 35.7717
12073.2 12073.2 1.000000 -0.220010 78.7197 98.0917 35.7028
12081.7 12081.7 1.000000 -0.220634 78.49 97.8665 35.7293
12090.3 12090.3 1.000000 -0.221430 78.2307 97.621 35.753
12099.2 12099.2 1.000000 -0.222704 78.0042 97.4622 35.756
12108.2 12108.2 1.000000 -0.224323 77.7897 97.3519 35.8192
12117.4 12117.4 1.000000 -0.226067 77.5092 97.17 35.8737
12126.7 12126.7 1.000000 -0.227485 77.4162 97.1912 35.9321
12136.2 12136.2 1.000000 -0.228415 77.1041 96.8894 35.8065
12145.9 12145.9 1.000000 -0.229010 76.7901 96.5523 35.5839
12155.8 12155.8 1.000000 -0.229396 76.5575 96.297 35.4072
12165.8 12165.8 1.000000 -0.229694 76.3224 96.0299 35.3705
12176.1 12176 1.000000 -0.230468 76.0555 95.7684 35.4367
12186.4 12186.4 1.000000 -0.231591 75.7717 95.5179 35.5375
12197 12197 1.000000 -0.232987 75.5188 95.3321 35.5983
12207.7 12207.7 1.000000 -0.234440 75.2161 95.0882 35.556
12218.6 12218.6 1.000000 -0.235749 74.9839 94.9187 35.5029
12229.7 12229.6 1.000000 -0.236952 74.4053 94.2998 35.3019
12240.9 12240.9 1.000000 -0.238091 74.6167 94.6755 35.5375
12252.3 12252.3 1.000000 -0.239155 74.0849 94.1007 35.4779
12263.9 12263.9 1.000000 -0.240261 72.1946 91.8012 34.7642
12275.6 12275.6 1.000000 -0.241320 73.5834 93.6662 35.5463
12287.6 12287.5 1.000000 -0.242256 71.4395 91.0225 34.5567
12299.6 12299.6 1.000000 -0.243320 72.8652 92.9377 35.279
12311.9 12311.9 1.000000 -0.244388 72.5364 92.6173 35.1692
12324.4 12324.3 1.000000 -0.245662 72.2366 92.3521 35.1397
12337 12336.9 1.000000 -0.247078 71.8457 91.9825 35.1206
12349.7 12349.7 1.000000 -0.248431 71.5471 91.7244 35.1712
12362.7 12362.7 1.000000 -0.249809 71.1204 91.303 35.1303
12375.8 12375.8 1.000000 -0.251001 70.7735 90.9659 35.0731
12389.1 12389.1 1.000000 -0.252146 70.4303 90.6284 34.9922
12402.6 12402.6 1.000000 -0.253363 70.0651 90.2683 34.902
12416.2 12416.2 1.000000 -0.254514 69.7102 89.9146 34.8573
12430 12430 1.000000 -0.255808 69.221 89.3993 34.7763
12444 12444 1.000000 -0.257064 69.0155 89.2459 34.8385
12458.1 12458.1 1.000000 -0.258338 68.5925 88.8119 34.764
12472.5 12472.5 1.000000 -0.259662 68.2365 88.468 34.6873
12487 12487 1.000000 -0.260989 67.7868 88.0016 34.5401
12501.7 12501.6 1.000000 -0.262337 67.3969 87.6135 34.4441
12516.5 12516.5 1.000000 -0.263744 67.0363 87.2675 34.3898
12531.5 12531.5 1.000000 -0.265045 66.6168 86.8343 34.3324
12546.7 12546.6 1.000000 -0.266445 66.2737 86.508 34.3158
12562 12562 1.000000 -0.267711 65.8878 86.1133 34.2648
12577.5 12577.5 1.000000 -0.268939 65.4474 85.6428 34.1615
12593.2 12593.2 1.000000 -0.270265 65.0016 85.1723 34.0442
12609.1 12609.1 1.000000 -0.271689 64.6182 84.7906 33.9625
12625.1 12625.1 1.000000 -0.273035 64.3438 84.5444 33.9529
12641.4 12641.3 1.000000 -0.274487 63.9351 84.1292 33.8868
12657.7 12657.7 1.000000 -0.275873 63.6098 83.8174 33.8596
12674.3 12674.3 1.000000 -0.277267 63.2301 83.4333 33.7976
12691 12691 1.000000 -0.278759 62.7965 82.9848 33.6879
12707.9 12707.9 1.000000 -0.280083 62.3712 82.532 33.5759
12725 12724.9 1.000000 -0.281443 61.9442 82.0786 33.4652
12742.2 12742.2 1.000000 -0.282782 61.5575 81.6753 33.3921
12759.6 12759.6 1.000000 -0.284164 61.1903 81.3004 33.3407
12777.2 12777.2 1.000000 -0.285626 60.7331 80.8111 33.2384
12795 12794.9 1.000000 -0.287068 60.2831 80.3281 33.1361
12812.9 12812.8 1.000000 -0.288462 59.8788 79.9008 33.0447
12831 12830.9 1.000000 -0.289902 59.4313 79.4179 32.9273
12837 12837 1.000000 -0.290397 59.2428 79.2051 32.869