File: xdidata/As/As-K-TetramethylArsoniumIodide.xdi
# XDI/1.0 BlueSky/1.10.0 BMM/2023-1.0-py310-tiled
# Beamline.name: BMM (06BM) -- Beamline for Materials Measurement (NIST)
# Beamline.xray_source: NSLS-II three-pole wiggler
# Beamline.collimation: paraboloid mirror, 5 nm Rh on 30 nm Pt
# Beamline.focusing: not in use
# Beamline.harmonic_rejection: flat mirror, Pt stripe, pitch = 7.0 mrad relative to beam
# Beamline.software: Bluesky 1.10.0, Ophyd 1.7.0, DataBroker 2.0.0b13, Python 3.10.8, 2023-1.0-py310-tiled
# Detector.I0: 10 cm N2
# Detector.I1: 25 cm N2
# Detector.I2: 25 cm N2
# Element.symbol: As
# Element.edge: K
# Element.reference: As
# Element.reference_material: As2O3
# Facility.name: NSLS-II
# Facility.energy: 3.0
# Facility.current: 399.7
# Facility.mode: top-off
# Facility.GUP: 301027
# Facility.SAF: 310583
# Facility.cycle: 2023-2
# Mono.name: Si(111)
# Mono.d_spacing: 3.13519
# Mono.encoder_resolution: 0.0000050 deg/ct
# Mono.angle_offset: 16.0754 deg
# Mono.scan_mode: pseudo channel cut
# Mono.scan_type: step
# Mono.direction: forward in energy
# Sample.name: C4H12AsI
# Sample.prep: powder in PEG pellet
# Sample.x: 115.008 mm
# Sample.y: 114.461 mm
# Sample.SDD_position: 170.000 mm
# Scan.experimenters: Bruce Ravel
# Scan.edge_energy: 11866.7
# Scan.start_time: 2023-07-10T17:02:20
# Scan.end_time: 2023-07-10T17:10:10
# Scan.transient_id: 90306
# Scan.uid: f37bdedf-bfbd-4e35-8347-3f3cc45809e7
# Scan.plot_hint: ln(I0/It)  --  ln($5/$6)
# Column.1: energy eV
# Column.2: requested_energy eV
# Column.3: measurement_time seconds
# Column.4: xmu
# Column.5: I0 nA
# Column.6: It nA
# Column.7: Ir nA
# ///////////
# sample courtesy Evan Jahrman, NIST
# -----------
# energy  requested_energy  measurement_time  xmu  I0  It  Ir
  11666.701  11666.700  0.500  0.398612  64.9306  43.5848  29.5399
  11696.754  11696.700  0.500  0.391879  64.5588  43.628  29.6495
  11726.737  11726.700  0.500  0.384842  64.154  43.6605  29.7477
  11756.738  11756.700  0.500  0.378146  63.6389  43.601  29.782
  11786.732  11786.700  0.500  0.371831  63.3495  43.6776  29.8956
  11816.705  11816.700  0.500  0.365869  62.9132  43.6362  29.9036
  11838.668  11838.700  0.500  0.362780  62.6361  43.5784  29.8058
  11844.666  11844.700  0.500  0.362461  62.5627  43.5412  29.7164
  11850.664  11850.700  0.500  0.363073  62.4689  43.4494  29.5383
  11856.668  11856.700  0.500  0.365110  62.2233  43.1904  29.1041
  11857.561  11857.600  0.500  0.365791  62.326  43.2323  29.0687
  11858.455  11858.500  0.500  0.366208  62.3269  43.2149  28.9846
  11859.367  11859.400  0.500  0.366820  62.3284  43.1895  28.88
  11860.266  11860.300  0.500  0.368313  62.1884  43.0282  28.6665
  11861.148  11861.200  0.500  0.369962  62.2813  43.0215  28.5394
  11862.054  11862.100  0.500  0.371374  62.3831  43.031  28.3956
  11862.973  11863.000  0.500  0.373051  62.2803  42.8881  28.1193
  11863.879  11863.900  0.500  0.375931  62.3286  42.7979  27.8338
  11864.786  11864.800  0.500  0.379083  62.4283  42.7315  27.5009
  11865.699  11865.700  0.500  0.383273  62.4566  42.5721  27.0057
  11866.581  11866.600  0.500  0.388967  62.4325  42.3141  26.3371
  11867.470  11867.500  0.500  0.397141  62.4164  41.9587  25.4105
  11868.383  11868.400  0.500  0.409167  62.4013  41.4472  24.1129
  11869.290  11869.300  0.500  0.427753  62.3848  40.6732  22.2766
  11870.191  11870.200  0.500  0.459169  62.3344  39.3834  19.6622
  11871.105  11871.100  0.500  0.519589  62.1909  36.989  16.1259
  11872.013  11872.000  0.500  0.641938  62.2177  32.7434  12.1631
  11872.896  11872.900  0.500  0.837225  62.307  26.9733  8.858551
  11873.779  11873.800  0.500  1.025683  62.3303  22.3486  7.083903
  11874.688  11874.700  0.500  1.053858  62.3164  21.7229  7.200753
  11875.596  11875.600  0.500  0.939723  62.2955  24.3411  8.496241
  11876.510  11876.500  0.500  0.831357  62.2863  27.1231  9.795704
  11877.413  11877.400  0.500  0.779092  62.2666  28.5693  10.6959
  11878.303  11878.300  0.500  0.764618  62.2519  28.979  11.3485
  11879.212  11879.200  0.500  0.764243  62.2348  28.9819  11.8462
  11880.090  11880.100  0.500  0.764771  62.2226  28.9609  12.17
  11880.999  11881.000  0.500  0.767590  62.2026  28.8701  12.2452
  11881.908  11881.900  0.500  0.779147  62.1851  28.5303  11.952
  11882.799  11882.800  0.500  0.797440  62.16  28.0019  11.4214
  11883.709  11883.700  0.500  0.811820  62.1085  27.5792  10.9901
  11884.588  11884.600  0.500  0.811227  61.8257  27.4699  10.8917
  11885.485  11885.500  0.500  0.800468  61.449  27.5979  11.042
  11886.389  11886.400  0.500  0.786749  61.5437  28.0222  11.356
  11887.293  11887.300  0.500  0.773079  61.8825  28.5643  11.6779
  11888.209  11888.200  0.500  0.759172  62.0125  29.0252  11.9259
  11889.101  11889.100  0.500  0.746712  62.0225  29.3938  12.1306
  11890.006  11890.000  0.500  0.735536  62.0202  29.7231  12.3516
  11890.898  11890.900  0.500  0.725249  62.003  30.0221  12.5957
  11891.679  11891.700  0.500  0.717235  61.9961  30.2603  12.7993
  11894.726  11894.710  0.500  0.689956  61.9515  31.0748  13.4813
  11897.905  11897.900  0.500  0.668533  61.8947  31.7186  14.0675
  11901.288  11901.260  0.500  0.647337  61.6078  32.2479  14.352
  11904.796  11904.780  0.500  0.641012  61.7648  32.5352  14.595
  11908.511  11908.480  0.500  0.643595  61.765  32.4513  14.6825
  11912.351  11912.350  0.500  0.647721  61.7169  32.2925  14.6161
  11916.428  11916.400  0.500  0.650834  61.4325  32.0439  14.2655
  11920.626  11920.610  0.500  0.666014  61.6028  31.6486  13.9473
  11924.988  11924.990  0.500  0.681278  61.5663  31.1507  13.6194
  11929.564  11929.550  0.500  0.687414  61.4952  30.9244  13.3351
  11934.292  11934.280  0.500  0.688662  61.1991  30.7371  13.1675
  11939.191  11939.180  0.500  0.690069  61.3392  30.7642  13.1368
  11944.268  11944.250  0.500  0.689257  61.2832  30.761  13.0995
  11949.493  11949.490  0.500  0.685493  61.2157  30.843  13.117
  11954.902  11954.910  0.500  0.678954  61.1376  31.0058  13.2951
  11960.503  11960.490  0.500  0.671176  61.0551  31.2057  13.45
  11966.260  11966.250  0.500  0.664345  60.9728  31.3773  13.6011
  11972.190  11972.180  0.500  0.659360  60.8923  31.4924  13.7063
  11978.245  11978.280  0.500  0.656763  60.7992  31.526  13.7751
  11984.519  11984.550  0.500  0.655622  60.7171  31.5194  13.8448
  11990.949  11990.990  0.500  0.655254  60.611  31.4759  13.8945
  11997.650  11997.600  0.500  0.655587  60.5089  31.4124  13.8872
  12004.396  12004.390  0.500  0.656281  60.4253  31.3473  13.8306
  12011.357  12011.350  0.500  0.656807  60.3396  31.2863  13.7455
  12018.458  12018.470  0.500  0.656341  60.3971  31.3308  13.7117
  12025.788  12025.770  0.500  0.655504  60.2965  31.3048  13.6685
  12033.241  12033.250  0.500  0.654188  60.2036  31.2977  13.6462
  12040.905  12040.890  0.500  0.652468  60.0832  31.2888  13.6469
  12048.711  12048.700  0.500  0.650175  58.2646  30.4114  13.3034
  12056.686  12056.690  0.500  0.646611  59.8475  31.3492  13.7637
  12064.875  12064.850  0.500  0.642700  59.746  31.4187  13.8319
  12073.176  12073.170  0.500  0.638683  59.6348  31.4864  13.8722
  12081.667  12081.670  0.500  0.635843  59.5221  31.5163  13.9108
  12090.368  12090.350  0.500  0.633474  59.3885  31.5201  13.948
  12099.195  12099.190  0.500  0.631854  59.2921  31.52  13.9694
  12108.209  12108.200  0.500  0.630594  59.1733  31.4965  13.9827
  12117.402  12117.390  0.500  0.629431  59.0553  31.4703  14.0081
  12126.762  12126.750  0.500  0.627944  58.9155  31.4425  14.0197
  12136.273  12136.270  0.500  0.625954  58.7991  31.4429  14.0244
  12145.959  12145.970  0.500  0.623897  58.6749  31.4411  14.0062
  12155.841  12155.850  0.500  0.621197  58.5318  31.4492  13.9875
  12165.893  12165.890  0.500  0.618033  58.4021  31.4789  14.0078
  12176.105  12176.100  0.500  0.614770  58.2631  31.5067  14.0563
  12186.502  12186.490  0.500  0.611321  58.1154  31.5353  14.1221
  12197.086  12197.050  0.500  0.608240  57.9848  31.5616  14.1801
  12207.792  12207.780  0.500  0.605060  57.8479  31.5874  14.2142
  12218.693  12218.680  0.500  0.602269  57.7092  31.5997  14.2265
  12229.764  12229.750  0.500  0.599496  57.5649  31.6082  14.2362
  12241.031  12240.990  0.500  0.597047  57.371  31.579  14.2513
  12252.449  12252.410  0.500  0.594537  57.2569  31.5954  14.301
  12264.021  12263.990  0.500  0.589882  56.1914  31.1521  14.1451
  12275.765  12275.750  0.500  0.589257  56.9522  31.5937  14.3725
  12287.671  12287.680  0.500  0.586222  56.7535  31.5791  14.3799
  12299.791  12299.780  0.500  0.583115  56.4314  31.4976  14.3452
  12312.094  12312.050  0.500  0.579674  56.443  31.6126  14.4011
  12324.507  12324.490  0.500  0.576663  56.1628  31.5506  14.3893
  12337.119  12337.110  0.500  0.573035  56.1112  31.6362  14.466
  12349.896  12349.890  0.500  0.569513  55.8157  31.5806  14.4843
  12362.853  12362.850  0.500  0.566272  55.7844  31.6653  14.5611
  12376.025  12375.980  0.500  0.562882  55.6257  31.6825  14.5955
  12389.305  12389.280  0.500  0.559791  55.4721  31.6928  14.6164
  12402.749  12402.750  0.500  0.556719  55.2929  31.6876  14.6314
  12416.416  12416.400  0.500  0.553613  55.0954  31.6726  14.6531
  12430.236  12430.210  0.500  0.550479  54.9029  31.661  14.6838
  12444.242  12444.200  0.500  0.547142  54.774  31.6923  14.7361
  12458.361  12458.360  0.500  0.543835  54.5921  31.6917  14.7702
  12472.709  12472.690  0.500  0.540416  54.4093  31.6937  14.7919
  12487.219  12487.190  0.500  0.537462  53.9974  31.5469  14.7391
  12501.894  12501.860  0.500  0.533179  54.0504  31.7134  14.8354
  12516.712  12516.700  0.500  0.529702  53.8618  31.7127  14.8638
  12531.744  12531.720  0.500  0.526056  53.6695  31.7149  14.8983
  12546.930  12546.900  0.500  0.522370  53.4941  31.728  14.9429
  12562.297  12562.260  0.500  0.518928  53.302  31.7231  14.9744
  12577.833  12577.790  0.500  0.515475  53.0883  31.7053  14.9959
  12593.526  12593.490  0.500  0.511943  52.9151  31.7136  15.0269
  12609.404  12609.360  0.500  0.508500  52.7129  31.7014  15.046
  12625.469  12625.410  0.500  0.505040  52.5077  31.6874  15.071
  12641.658  12641.620  0.500  0.501220  52.2764  31.6686  15.0965
  12658.051  12658.010  0.500  0.497724  52.1318  31.6916  15.146
  12674.633  12674.570  0.500  0.493988  51.9265  31.6849  15.1722
  12691.323  12691.300  0.500  0.490240  51.7242  31.68  15.1973
  12708.226  12708.200  0.500  0.486354  51.5102  31.6718  15.2193
  12719.593  12719.560  0.500  0.483852  51.3747  31.6676  15.2355