File: xdidata/Re/Re-L3-RheniumOxide.xdi
# XDI/1.0 BlueSky/1.10.0 BMM/2023-1.0-py310-tiled
# Beamline.name: BMM (06BM) -- Beamline for Materials Measurement (NIST)
# Beamline.xray_source: NSLS-II three-pole wiggler
# Beamline.collimation: paraboloid mirror, 5 nm Rh on 30 nm Pt
# Beamline.focusing: not in use
# Beamline.harmonic_rejection: flat mirror, Pt stripe, pitch = 7.0 mrad relative to beam
# Beamline.software: Bluesky 1.10.0, Ophyd 1.7.0, DataBroker 2.0.0b13, Python 3.10.8, 2023-1.0-py310-tiled
# Detector.I0: 10 cm N2
# Detector.I1: 25 cm N2
# Detector.I2: 25 cm N2
# Element.symbol: Re
# Element.edge: L3
# Element.reference: Re
# Element.reference_material: ReO2
# Facility.name: NSLS-II
# Facility.energy: 3.0
# Facility.current: 399.2
# Facility.mode: top-off
# Facility.GUP: 301027
# Facility.SAF: 310583
# Facility.cycle: 2023-2
# Mono.name: Si(111)
# Mono.d_spacing: 3.13519
# Mono.encoder_resolution: 0.0000050 deg/ct
# Mono.angle_offset: 16.0754 deg
# Mono.scan_mode: pseudo channel cut
# Mono.scan_type: step
# Mono.direction: forward in energy
# Sample.name: ReO2
# Sample.prep: powder on tape
# Sample.x: 109.138 mm
# Sample.y: 153.150 mm
# Sample.SDD_position: 205.000 mm
# Scan.experimenters: Bruce Ravel
# Scan.edge_energy: 10535.3
# Scan.start_time: 2023-05-28T18:14:35
# Scan.end_time: 2023-05-28T18:22:46
# Scan.transient_id: 78903
# Scan.uid: 741b7d23-8b99-4040-9f1f-c6106763412c
# Scan.plot_hint: ln(It/Ir)  --  ln($6/$7)
# Column.1: energy eV
# Column.2: requested_energy eV
# Column.3: measurement_time seconds
# Column.4: xmu
# Column.5: I0 nA
# Column.6: It nA
# Column.7: Ir nA
# ///////////
# Welcome to BMM
# -----------
# energy  requested_energy  measurement_time  xmu  I0  It  Ir
  10335.297  10335.300  0.500  2.009502  90.4203  141.812  19.0106
  10365.365  10365.300  0.500  1.993121  89.8987  141.265  19.2501
  10395.379  10395.300  0.500  1.977056  89.6206  141.096  19.5384
  10425.330  10425.300  0.500  1.961823  89.1038  140.539  19.76
  10455.324  10455.300  0.500  1.948370  88.5592  139.941  19.9424
  10485.371  10485.300  0.500  1.941750  88.0337  139.364  19.9922
  10507.285  10507.300  0.500  1.958467  87.6556  138.956  19.6032
  10513.276  10513.300  0.500  1.976357  87.5207  138.786  19.2321
  10519.277  10519.300  0.500  2.012642  87.4223  138.691  18.534
  10525.272  10525.300  0.500  2.098569  87.153  138.301  16.9601
  10526.151  10526.200  0.500  2.120981  87.0707  138.184  16.5702
  10527.068  10527.100  0.500  2.148817  87.126  138.268  16.1251
  10527.976  10528.000  0.500  2.181288  87.2179  138.424  15.6275
  10528.889  10528.900  0.500  2.219615  87.2204  138.44  15.0417
  10529.778  10529.800  0.500  2.267284  87.2139  138.428  14.3402
  10530.677  10530.700  0.500  2.328710  87.1885  138.395  13.4826
  10531.586  10531.600  0.500  2.409021  87.1861  138.398  12.4425
  10532.480  10532.500  0.500  2.512187  87.146  138.351  11.219
  10533.389  10533.400  0.500  2.647989  87.1249  138.311  9.791544
  10534.274  10534.300  0.500  2.831688  87.1187  138.311  8.148352
  10535.203  10535.200  0.500  3.103791  87.069  138.26  6.204956
  10536.088  10536.100  0.500  3.481121  87.0543  138.237  4.253949
  10537.002  10537.000  0.500  4.011792  87.0298  138.209  2.501705
  10537.898  10537.900  0.500  4.672275  87.0158  138.181  1.292130
  10538.793  10538.800  0.500  5.402716  87.0047  138.162  0.622329
  10539.689  10539.700  0.500  6.131754  86.8949  138.012  0.299867
  10540.594  10540.600  0.500  6.720064  86.8615  137.956  0.166438
  10541.495  10541.500  0.500  7.060816  86.9086  138.052  0.118459
  10542.391  10542.400  0.500  7.061810  86.905  138.044  0.118335
  10543.311  10543.300  0.500  6.731074  86.881  138.026  0.164700
  10544.208  10544.200  0.500  6.179320  86.8599  138  0.285913
  10545.100  10545.100  0.500  5.567055  86.8438  137.981  0.527325
  10545.996  10546.000  0.500  5.007282  86.8225  137.959  0.922813
  10546.893  10546.900  0.500  4.566208  86.8085  137.934  1.434141
  10547.805  10547.800  0.500  4.243481  86.7955  137.917  1.980142
  10548.712  10548.700  0.500  4.013680  86.746  137.834  2.490208
  10549.609  10549.600  0.500  3.860851  86.7061  137.803  2.900774
  10550.492  10550.500  0.500  3.767128  86.7121  137.812  3.185988
  10551.390  10551.400  0.500  3.713561  86.6932  137.785  3.360637
  10552.297  10552.300  0.500  3.684841  86.6826  137.78  3.458441
  10553.209  10553.200  0.500  3.665935  86.6442  137.729  3.523133
  10554.112  10554.100  0.500  3.648404  86.61  137.685  3.584311
  10555.011  10555.000  0.500  3.627696  86.5559  137.587  3.656693
  10555.895  10555.900  0.500  3.603110  86.4536  137.446  3.743872
  10556.788  10556.800  0.500  3.575626  86.4839  137.501  3.849750
  10557.697  10557.700  0.500  3.546915  86.3843  137.33  3.956953
  10558.610  10558.600  0.500  3.518980  86.3269  137.253  4.066749
  10559.509  10559.500  0.500  3.495393  86.4862  137.533  4.172321
  10560.292  10560.300  0.500  3.479662  86.5195  137.578  4.239850
  10563.315  10563.310  0.500  3.467934  86.4707  137.516  4.287941
  10566.504  10566.500  0.500  3.492042  86.4233  137.487  4.184926
  10569.879  10569.860  0.500  3.500711  86.6322  137.841  4.159484
  10573.397  10573.380  0.500  3.508213  86.6033  137.823  4.127843
  10577.062  10577.080  0.500  3.532800  86.5523  137.774  4.026163
  10580.959  10580.950  0.500  3.584407  86.4808  137.684  3.821161
  10584.965  10585.000  0.500  3.676226  86.3758  137.528  3.481972
  10589.344  10589.210  0.500  3.767047  86.3238  137.514  3.179359
  10593.565  10593.590  0.500  3.779816  86.2469  137.408  3.136602
  10598.136  10598.150  0.500  3.710305  86.0884  137.209  3.357508
  10602.872  10602.880  0.500  3.631698  86.0485  137.18  3.631319
  10607.774  10607.780  0.500  3.576236  85.9541  137.052  3.834833
  10612.841  10612.850  0.500  3.540128  85.8449  136.923  3.972070
  10618.084  10618.090  0.500  3.525840  85.6878  136.711  4.022999
  10623.498  10623.510  0.500  3.528406  85.6524  136.706  4.012553
  10629.085  10629.090  0.500  3.544548  85.5345  136.562  3.944142
  10634.855  10634.850  0.500  3.554762  85.4363  136.437  3.900472
  10640.768  10640.780  0.500  3.550858  85.299  136.271  3.910982
  10646.880  10646.880  0.500  3.550221  85.2118  136.19  3.911138
  10653.161  10653.150  0.500  3.576165  85.1076  136.066  3.807506
  10659.588  10659.590  0.500  3.611984  84.9308  135.823  3.666989
  10666.200  10666.200  0.500  3.626285  84.8447  135.753  3.613062
  10672.994  10672.990  0.500  3.615398  84.7172  135.591  3.648248
  10679.959  10679.950  0.500  3.593396  84.4077  135.169  3.717798
  10687.073  10687.070  0.500  3.567165  84.4575  135.28  3.819748
  10694.375  10694.370  0.500  3.545663  84.3112  135.092  3.897341
  10701.841  10701.850  0.500  3.532944  84.1871  134.961  3.943391
  10709.487  10709.490  0.500  3.526206  84.0375  134.772  3.964501
  10717.288  10717.300  0.500  3.527524  83.8833  134.591  3.953969
  10725.301  10725.290  0.500  3.529843  83.7276  134.402  3.939246
  10733.460  10733.450  0.500  3.525927  83.5909  134.236  3.949841
  10741.768  10741.770  0.500  3.525962  83.2825  133.806  3.937031
  10750.284  10750.270  0.500  3.532045  83.2501  133.817  3.913482
  10758.949  10758.950  0.500  3.534301  83.0867  133.608  3.898561
  10767.790  10767.790  0.500  3.529280  82.9268  133.409  3.912366
  10776.806  10776.800  0.500  3.520067  82.7653  133.225  3.943123
  10785.985  10785.990  0.500  3.504465  82.2885  132.52  3.983936
  10795.361  10795.350  0.500  3.488123  82.4025  132.767  4.057102
  10804.896  10804.870  0.500  3.476908  82.2128  132.526  4.095413
  10814.585  10814.570  0.500  3.472332  81.7732  131.906  4.094956
  10824.459  10824.450  0.500  3.473503  81.8879  132.135  4.097272
  10834.500  10834.490  0.500  3.470566  81.6896  131.892  4.101757
  10844.717  10844.700  0.500  3.459914  81.4789  131.631  4.137493
  10855.118  10855.090  0.500  3.452701  81.0199  130.947  4.145792
  10865.662  10865.650  0.500  3.451638  81.1132  131.183  4.157665
  10876.417  10876.380  0.500  3.448048  80.783  130.701  4.157287
  10887.292  10887.280  0.500  3.439916  80.7199  130.696  4.191092
  10898.374  10898.350  0.500  3.431143  80.5186  130.438  4.219670
  10909.629  10909.590  0.500  3.420242  80.5178  130.511  4.268299
  10921.021  10921.010  0.500  3.408930  80.3336  130.293  4.309659
  10932.635  10932.590  0.500  3.398745  80.125  130.034  4.345093
  10944.357  10944.350  0.500  3.392128  79.9196  129.786  4.365616
  10956.318  10956.280  0.500  3.385096  79.7008  129.501  4.386783
  10968.406  10968.380  0.500  3.373391  79.4739  129.209  4.428420
  10980.682  10980.650  0.500  3.360630  79.1884  128.826  4.471990
  10993.118  10993.090  0.500  3.352735  79.0191  128.631  4.500626
  11005.719  11005.710  0.500  3.347253  78.7861  128.34  4.515106
  11018.529  11018.490  0.500  3.342700  78.5503  128.028  4.524680
  11031.480  11031.450  0.500  3.335959  78.3055  127.712  4.544039
  11044.605  11044.580  0.500  3.326463  78.0628  127.391  4.575882
  11057.921  11057.880  0.500  3.313778  77.8093  127.061  4.622297
  11071.371  11071.350  0.500  3.299633  77.5617  126.743  4.676385
  11085.031  11085.000  0.500  3.287085  77.3125  126.412  4.723087
  11098.826  11098.810  0.500  3.279384  76.9894  125.97  4.742968
  11112.860  11112.800  0.500  3.270475  76.7593  125.691  4.774804
  11126.984  11126.960  0.500  3.259129  76.5241  125.369  4.816918
  11141.322  11141.290  0.500  3.248726  76.2652  125.036  4.854365
  11155.828  11155.790  0.500  3.240129  75.9944  124.687  4.882604
  11170.481  11170.460  0.500  3.230701  75.7329  124.328  4.914648
  11185.319  11185.300  0.500  3.220086  75.4498  123.953  4.952125
  11200.356  11200.320  0.500  3.208930  75.1672  123.567  4.992083
  11215.532  11215.500  0.500  3.196780  74.8819  123.191  5.037749
  11230.887  11230.860  0.500  3.185183  74.5735  122.789  5.079851
  11246.422  11246.390  0.500  3.173418  74.3821  122.552  5.130079
  11262.133  11262.090  0.500  3.163423  74.0448  122.083  5.161760
  11277.977  11277.960  0.500  3.153803  73.7337  121.657  5.193469
  11294.028  11294.010  0.500  3.142495  73.381  121.162  5.231162
  11310.241  11310.220  0.500  3.129352  73.1233  120.825  5.285619
  11326.625  11326.610  0.500  3.116521  72.8459  120.461  5.337757
  11343.179  11343.170  0.500  3.105066  72.4566  119.89  5.373653
  11359.929  11359.900  0.500  3.093028  70.2078  116.261  5.274095
  11376.797  11376.800  0.500  3.081975  70.9125  117.511  5.390043
  11388.177  11388.160  0.500  3.074770  71.4447  118.438  5.471851