File: xdidata/Re/Re-L1-RheniumTrioxide.xdi
# XDI/1.0 BlueSky/1.10.0 BMM/2023-1.0-py310-tiled
# Beamline.name: BMM (06BM) -- Beamline for Materials Measurement (NIST)
# Beamline.xray_source: NSLS-II three-pole wiggler
# Beamline.collimation: paraboloid mirror, 5 nm Rh on 30 nm Pt
# Beamline.focusing: not in use
# Beamline.harmonic_rejection: flat mirror, Pt stripe, pitch = 7.0 mrad relative to beam
# Beamline.software: Bluesky 1.10.0, Ophyd 1.7.0, DataBroker 2.0.0b13, Python 3.10.8, 2023-1.0-py310-tiled
# Detector.I0: 10 cm N2
# Detector.I1: 25 cm N2
# Detector.I2: 25 cm N2
# Element.symbol: Re
# Element.edge: L1
# Element.reference: Re
# Element.reference_material: ReO2
# Facility.name: NSLS-II
# Facility.energy: 3.0
# Facility.current: 400.6
# Facility.mode: top-off
# Facility.GUP: 301027
# Facility.SAF: 310583
# Facility.cycle: 2023-2
# Mono.name: Si(111)
# Mono.d_spacing: 3.13519
# Mono.encoder_resolution: 0.0000050 deg/ct
# Mono.angle_offset: 16.0754 deg
# Mono.scan_mode: pseudo channel cut
# Mono.scan_type: step
# Mono.direction: forward in energy
# Sample.name: ReO3, Rhenium trioxide
# Sample.prep: powder on tape
# Sample.x: 145.711 mm
# Sample.y: 114.376 mm
# Sample.SDD_position: 205.000 mm
# Scan.experimenters: Bruce Ravel
# Scan.edge_energy: 12526.7
# Scan.start_time: 2023-06-27T19:00:02
# Scan.end_time: 2023-06-27T19:07:56
# Scan.transient_id: 85244
# Scan.uid: 5b1c23a2-73ca-4988-8661-fdb9ea4287b5
# Scan.plot_hint: ln(I0/It)  --  ln($5/$6)
# Column.1: energy eV
# Column.2: requested_energy eV
# Column.3: measurement_time seconds
# Column.4: xmu
# Column.5: I0 nA
# Column.6: It nA
# Column.7: Ir nA
# ///////////
# Welcome to BMM
# -----------
# energy  requested_energy  measurement_time  xmu  I0  It  Ir
  12326.738  12326.700  0.500  5.298304  56.0786  0.280397  0.009131
  12356.757  12356.700  0.500  5.278235  55.7272  0.284288  0.009528
  12386.785  12386.700  0.500  5.228418  55.4307  0.297219  0.010278
  12416.732  12416.700  0.500  5.218151  55.0338  0.298137  0.010438
  12446.725  12446.700  0.500  5.165032  54.7008  0.312499  0.010952
  12476.730  12476.700  0.500  5.151106  54.3349  0.314762  0.011343
  12498.673  12498.700  0.500  5.141931  54.0837  0.316194  0.011470
  12504.687  12504.700  0.500  5.133950  54.0017  0.318245  0.011602
  12510.680  12510.700  0.500  5.126584  53.9263  0.320150  0.011491
  12516.658  12516.700  0.500  5.123148  53.8488  0.320790  0.011715
  12517.539  12517.600  0.500  5.122773  53.8389  0.320852  0.011655
  12518.447  12518.500  0.500  5.123097  53.8185  0.320626  0.011606
  12519.362  12519.400  0.500  5.122363  53.8036  0.320773  0.011549
  12520.271  12520.300  0.500  5.123190  53.7949  0.320456  0.011589
  12521.179  12521.200  0.500  5.124115  53.7744  0.320038  0.011475
  12522.081  12522.100  0.500  5.125484  53.7701  0.319574  0.011476
  12522.983  12523.000  0.500  5.127342  53.7508  0.318866  0.011338
  12523.879  12523.900  0.500  5.128372  53.7384  0.318465  0.011473
  12524.781  12524.800  0.500  5.130651  53.724  0.317654  0.011471
  12525.670  12525.700  0.500  5.133994  53.7085  0.316503  0.011228
  12526.572  12526.600  0.500  5.137542  53.6989  0.315326  0.011235
  12527.496  12527.500  0.500  5.142262  53.6816  0.313740  0.011134
  12528.392  12528.400  0.500  5.149268  53.6654  0.311455  0.010922
  12529.302  12529.300  0.500  5.155671  53.6572  0.309420  0.010758
  12530.212  12530.200  0.500  5.164727  53.6375  0.306518  0.010571
  12531.087  12531.100  0.500  5.177495  53.6227  0.302546  0.010331
  12531.991  12532.000  0.500  5.191719  53.6081  0.298192  0.010075
  12532.888  12532.900  0.500  5.204922  53.5968  0.294219  0.009759
  12533.805  12533.800  0.500  5.220717  53.5718  0.289473  0.009446
  12534.688  12534.700  0.500  5.234651  53.5564  0.285385  0.009293
  12535.613  12535.600  0.500  5.247110  53.5433  0.281782  0.008919
  12536.496  12536.500  0.500  5.258530  53.532  0.278524  0.008925
  12537.414  12537.400  0.500  5.269874  53.5127  0.275283  0.008579
  12538.277  12538.300  0.500  5.279598  53.4922  0.272515  0.008358
  12539.182  12539.200  0.500  5.292326  53.4459  0.268835  0.008276
  12540.100  12540.100  0.500  5.306390  53.2681  0.264199  0.007756
  12541.012  12541.000  0.500  5.325254  53.0128  0.258019  0.007498
  12541.903  12541.900  0.500  5.347622  53.1627  0.253025  0.007118
  12542.815  12542.800  0.500  5.375408  53.3747  0.247073  0.006880
  12543.692  12543.700  0.500  5.410259  53.4421  0.238912  0.006591
  12544.598  12544.600  0.500  5.449751  53.4272  0.229597  0.006004
  12545.482  12545.500  0.500  5.496820  53.4101  0.218970  0.005509
  12546.402  12546.400  0.500  5.549213  53.3965  0.207740  0.005464
  12547.293  12547.300  0.500  5.602540  53.3838  0.196905  0.004969
  12548.199  12548.200  0.500  5.648849  53.3688  0.187942  0.004567
  12549.119  12549.100  0.500  5.682981  53.3593  0.181603  0.004459
  12549.997  12550.000  0.500  5.703735  53.3508  0.177845  0.004156
  12550.917  12550.900  0.500  5.713998  53.3218  0.175933  0.004123
  12551.693  12551.700  0.500  5.717263  53.3164  0.175342  0.004028
  12554.736  12554.710  0.500  5.736587  53.2788  0.171864  0.003996
  12557.910  12557.900  0.500  5.801414  53.2237  0.160910  0.003750
  12561.279  12561.260  0.500  5.827007  53.1817  0.156720  0.003695
  12564.808  12564.780  0.500  5.826725  53.3166  0.157162  0.003661
  12568.476  12568.480  0.500  5.853501  53.2723  0.152883  0.003593
  12572.375  12572.350  0.500  5.839141  53.2185  0.154937  0.003941
  12576.406  12576.400  0.500  5.758583  53.1586  0.167746  0.004134
  12580.626  12580.610  0.500  5.692066  53.1116  0.179125  0.004659
  12584.995  12584.990  0.500  5.660071  53.0598  0.184769  0.004752
  12589.559  12589.550  0.500  5.629030  52.9967  0.190367  0.004983
  12594.273  12594.280  0.500  5.597864  52.9432  0.196195  0.005212
  12599.162  12599.180  0.500  5.571309  52.8745  0.201214  0.005313
  12604.215  12604.250  0.500  5.568924  52.8115  0.201454  0.005326
  12609.861  12609.490  0.500  5.581468  52.7435  0.198686  0.005155
  12615.041  12614.910  0.500  5.573804  52.6758  0.199958  0.005188
  12620.461  12620.490  0.500  5.571135  52.5814  0.200133  0.005341
  12626.233  12626.250  0.500  5.602077  52.5106  0.193774  0.004987
  12632.163  12632.180  0.500  5.654336  52.4442  0.183675  0.004908
  12638.273  12638.280  0.500  5.652643  52.3767  0.183750  0.004651
  12644.550  12644.550  0.500  5.624946  52.2941  0.188612  0.004991
  12650.979  12650.990  0.500  5.617666  52.2044  0.189664  0.005072
  12657.597  12657.600  0.500  5.609588  52.1398  0.190966  0.005020
  12664.375  12664.390  0.500  5.591878  52.0518  0.194050  0.005242
  12671.356  12671.350  0.500  5.572479  51.9641  0.197518  0.005323
  12678.458  12678.470  0.500  5.559496  51.8785  0.199769  0.005522
  12685.778  12685.770  0.500  5.547341  51.7836  0.201843  0.005588
  12693.240  12693.250  0.500  5.518776  51.6918  0.207323  0.005766
  12700.894  12700.890  0.500  5.491232  51.5939  0.212709  0.005771
  12708.712  12708.700  0.500  5.485791  51.5031  0.213494  0.005795
  12716.674  12716.690  0.500  5.505229  51.4047  0.208984  0.005675
  12724.857  12724.850  0.500  5.515074  51.301  0.206519  0.005800
  12733.165  12733.170  0.500  5.508336  51.1892  0.207462  0.005857
  12741.667  12741.670  0.500  5.501605  51.1009  0.208503  0.005769
  12750.337  12750.350  0.500  5.497431  51.0037  0.208977  0.005924
  12759.182  12759.190  0.500  5.486266  50.8995  0.210891  0.005981
  12768.210  12768.200  0.500  5.476262  50.7949  0.212574  0.006151
  12777.401  12777.390  0.500  5.460541  50.6859  0.215479  0.006217
  12786.783  12786.750  0.500  5.443821  50.5794  0.218652  0.006336
  12796.272  12796.270  0.500  5.421680  50.4838  0.223124  0.006642
  12805.976  12805.970  0.500  5.395830  50.3759  0.228478  0.006634
  12815.851  12815.850  0.500  5.379718  50.2696  0.231699  0.006859
  12825.915  12825.890  0.500  5.381283  50.1615  0.230839  0.007097
  12836.109  12836.100  0.500  5.388567  50.0458  0.228635  0.006902
  12846.508  12846.490  0.500  5.377960  49.9391  0.230580  0.006970
  12857.074  12857.050  0.500  5.364524  49.819  0.233138  0.007025
  12867.810  12867.780  0.500  5.348203  49.7036  0.236425  0.007336
  12878.708  12878.680  0.500  5.337040  49.4713  0.237961  0.007471
  12889.778  12889.750  0.500  5.328533  49.4663  0.239970  0.007460
  12900.997  12900.990  0.500  5.312253  49.2899  0.243039  0.007622
  12912.432  12912.410  0.500  5.301970  49.1986  0.245096  0.007764
  12924.027  12923.990  0.500  5.288625  49.0819  0.247800  0.007956
  12935.774  12935.750  0.500  5.273563  48.9581  0.250926  0.008012
  12947.725  12947.680  0.500  5.264631  48.7965  0.252342  0.008154
  12959.801  12959.780  0.500  5.261841  48.7008  0.252550  0.008368
  12972.069  12972.050  0.500  5.248068  48.5592  0.255308  0.008470
  12984.500  12984.490  0.500  5.225361  48.5781  0.261273  0.008721
  12997.125  12997.110  0.500  5.196626  48.4372  0.268110  0.008937
  13009.915  13009.890  0.500  5.186375  48.2876  0.270036  0.009156
  13022.878  13022.850  0.500  5.178884  48.1405  0.271237  0.009244
  13036.008  13035.980  0.500  5.168275  47.9927  0.273289  0.009392
  13049.329  13049.280  0.500  5.160799  47.7894  0.274173  0.009554
  13062.796  13062.750  0.500  5.153243  47.6807  0.275624  0.009629
  13076.433  13076.400  0.500  5.133381  47.5251  0.280236  0.009966
  13090.234  13090.210  0.500  5.114702  47.3673  0.284572  0.010158
  13104.213  13104.200  0.500  5.099511  47.1905  0.287849  0.010352
  13118.374  13118.360  0.500  5.086172  46.9832  0.290433  0.010522
  13132.731  13132.690  0.500  5.070421  46.8729  0.294352  0.010817
  13147.255  13147.190  0.500  5.051521  46.716  0.298963  0.011020
  13161.918  13161.860  0.500  5.031816  46.5457  0.303802  0.011247
  13176.727  13176.700  0.500  5.024425  46.3787  0.304957  0.011445
  13191.753  13191.720  0.500  5.016197  46.2027  0.306310  0.011607
  13206.935  13206.900  0.500  5.002794  46.0235  0.309239  0.011892
  13222.312  13222.260  0.500  4.985800  45.836  0.313257  0.012154
  13237.825  13237.790  0.500  4.963262  45.6494  0.319093  0.012517
  13253.537  13253.490  0.500  4.940430  45.435  0.324929  0.012762
  13269.408  13269.360  0.500  4.926991  45.1185  0.327032  0.013024
  13285.457  13285.410  0.500  4.918292  44.4798  0.325219  0.013138
  13301.661  13301.620  0.500  4.909973  44.2339  0.326123  0.013311
  13318.053  13318.010  0.500  4.895156  44.1013  0.329999  0.013505
  13334.632  13334.570  0.500  4.869459  43.8794  0.336885  0.013973
  13351.347  13351.300  0.500  4.844474  43.7559  0.344436  0.014345
  13368.244  13368.200  0.500  4.829090  43.5566  0.348183  0.014628
  13379.604  13379.560  0.500  4.820369  43.4279  0.350195  0.014959