File: xdidata/Re/Re-L3-RheniumDioxide.xdi
# XDI/1.0 BlueSky/1.10.0 BMM/2023-1.0-py310-tiled
# Beamline.name: BMM (06BM) -- Beamline for Materials Measurement (NIST)
# Beamline.xray_source: NSLS-II three-pole wiggler
# Beamline.collimation: paraboloid mirror, 5 nm Rh on 30 nm Pt
# Beamline.focusing: not in use
# Beamline.harmonic_rejection: flat mirror, Pt stripe, pitch = 7.0 mrad relative to beam
# Beamline.software: Bluesky 1.10.0, Ophyd 1.7.0, DataBroker 2.0.0b13, Python 3.10.8, 2023-1.0-py310-tiled
# Detector.I0: 10 cm N2
# Detector.I1: 25 cm N2
# Detector.I2: 25 cm N2
# Element.symbol: Re
# Element.edge: L3
# Element.reference: Re
# Element.reference_material: ReO2
# Facility.name: NSLS-II
# Facility.energy: 3.0
# Facility.current: 400.2
# Facility.mode: top-off
# Facility.GUP: 301027
# Facility.SAF: 310583
# Facility.cycle: 2023-2
# Mono.name: Si(111)
# Mono.d_spacing: 3.13519
# Mono.encoder_resolution: 0.0000050 deg/ct
# Mono.angle_offset: 16.0754 deg
# Mono.scan_mode: pseudo channel cut
# Mono.scan_type: step
# Mono.direction: forward in energy
# Sample.name: ReO2, Rhenium dioxide
# Sample.prep: powder on tape
# Sample.x: 145.711 mm
# Sample.y: 114.376 mm
# Sample.SDD_position: 205.000 mm
# Scan.experimenters: Bruce Ravel
# Scan.edge_energy: 10535.3
# Scan.start_time: 2023-06-27T16:54:48
# Scan.end_time: 2023-06-27T17:02:25
# Scan.transient_id: 85168
# Scan.uid: 48c0d23d-b93d-456e-9737-9ce2d6d68dea
# Scan.plot_hint: ln(I0/It)  --  ln($5/$6)
# Column.1: energy eV
# Column.2: requested_energy eV
# Column.3: measurement_time seconds
# Column.4: xmu
# Column.5: I0 nA
# Column.6: It nA
# Column.7: Ir nA
# ///////////
# Welcome to BMM
# -----------
# energy  requested_energy  measurement_time  xmu  I0  It  Ir
  10335.283  10335.300  0.500  1.599110  90.425  18.2727  2.400864
  10365.333  10365.300  0.500  1.580680  89.8968  18.5039  2.472532
  10395.351  10395.300  0.500  1.562788  89.3107  18.7151  2.541390
  10425.330  10425.300  0.500  1.545484  88.7589  18.9242  2.609774
  10455.339  10455.300  0.500  1.530195  88.2032  19.0954  2.669880
  10485.386  10485.300  0.500  1.521356  87.6554  19.1453  2.693230
  10507.290  10507.300  0.500  1.535880  87.2465  18.7812  2.595258
  10513.285  10513.300  0.500  1.552605  87.0651  18.4313  2.499582
  10519.287  10519.300  0.500  1.586502  87.0156  17.8069  2.326864
  10525.296  10525.300  0.500  1.666375  86.8067  16.4004  1.964259
  10526.165  10526.200  0.500  1.686727  86.633  16.0379  1.878961
  10527.063  10527.100  0.500  1.711533  86.701  15.6572  1.784817
  10527.962  10528.000  0.500  1.740250  86.7609  15.2245  1.681939
  10528.880  10528.900  0.500  1.775256  86.8051  14.7083  1.564259
  10529.783  10529.800  0.500  1.818404  86.8031  14.0868  1.429806
  10530.682  10530.700  0.500  1.873330  86.7808  13.3305  1.275119
  10531.591  10531.600  0.500  1.943158  86.7612  12.4286  1.102316
  10532.480  10532.500  0.500  2.032387  86.7399  11.3649  0.915784
  10533.380  10533.400  0.500  2.147569  86.713  10.1253  0.721049
  10534.293  10534.300  0.500  2.306819  86.6968  8.633051  0.519680
  10535.198  10535.200  0.500  2.527323  86.6702  6.922570  0.331431
  10536.093  10536.100  0.500  2.833688  86.6518  5.094747  0.178715
  10536.988  10537.000  0.500  3.268142  86.6255  3.298451  0.075197
  10537.893  10537.900  0.500  3.831880  86.6  1.876522  0.024634
  10538.798  10538.800  0.500  4.514912  86.5765  0.947542  0.006227
  10539.699  10539.700  0.500  5.247021  86.5107  0.455321  0.001559
  10540.599  10540.600  0.500  5.880599  86.4348  0.241422  0.000481
  10541.495  10541.500  0.500  6.335703  86.4654  0.153208  0.000499
  10542.401  10542.400  0.500  6.512407  86.7141  0.128762  0.000252
  10543.302  10543.300  0.500  6.367301  86.7012  0.148848  0.000349
  10544.203  10544.200  0.500  5.938952  86.6803  0.228384  0.000566
  10545.090  10545.100  0.500  5.364217  86.6595  0.405664  0.001198
  10545.996  10546.000  0.500  4.775872  86.6394  0.730433  0.003555
  10546.913  10546.900  0.500  4.286166  86.6194  1.191672  0.008823
  10547.805  10547.800  0.500  3.923317  86.5885  1.712321  0.018127
  10548.683  10548.700  0.500  3.662730  86.5693  2.221573  0.030408
  10549.609  10549.600  0.500  3.475314  86.5401  2.678601  0.044564
  10550.506  10550.500  0.500  3.357064  86.5152  3.013965  0.056693
  10551.409  10551.400  0.500  3.288861  86.4901  3.225762  0.065202
  10552.297  10552.300  0.500  3.252504  86.4692  3.344390  0.070268
  10553.190  10553.200  0.500  3.231612  86.4507  3.414265  0.073276
  10554.098  10554.100  0.500  3.215071  86.4296  3.470361  0.076212
  10555.006  10555.000  0.500  3.196455  86.3874  3.533848  0.079167
  10555.895  10555.900  0.500  3.174440  86.2949  3.608639  0.082847
  10556.803  10556.800  0.500  3.147948  86.2669  3.704312  0.087526
  10557.706  10557.700  0.500  3.120177  86.2703  3.808777  0.092754
  10558.605  10558.600  0.500  3.092298  86.1126  3.909295  0.098052
  10559.495  10559.500  0.500  3.066581  86.1725  4.013929  0.103383
  10560.297  10560.300  0.500  3.047320  86.2748  4.096846  0.108004
  10563.310  10563.310  0.500  3.024029  86.2295  4.191186  0.112962
  10566.514  10566.500  0.500  3.045673  86.1627  4.098265  0.107718
  10569.879  10569.860  0.500  3.054819  86.0911  4.057580  0.105411
  10573.387  10573.380  0.500  3.059970  86.0208  4.033439  0.103894
  10577.096  10577.080  0.500  3.080500  85.9538  3.948400  0.099310
  10580.959  10580.950  0.500  3.125940  85.8713  3.769376  0.089957
  10585.018  10585.000  0.500  3.211435  85.7777  3.456734  0.074993
  10589.237  10589.210  0.500  3.300859  85.7265  3.159149  0.061868
  10593.604  10593.590  0.500  3.324205  85.6506  3.083521  0.058947
  10598.166  10598.150  0.500  3.263152  85.5364  3.273271  0.067167
  10602.902  10602.880  0.500  3.186938  85.4912  3.530626  0.078723
  10607.793  10607.780  0.500  3.132198  85.3945  3.725066  0.088501
  10612.865  10612.850  0.500  3.095255  85.2671  3.859482  0.095446
  10618.103  10618.090  0.500  3.079826  85.2015  3.916482  0.098613
  10623.523  10623.510  0.500  3.080505  85.1473  3.911330  0.098281
  10629.100  10629.090  0.500  3.094962  85.0489  3.850733  0.095012
  10634.860  10634.850  0.500  3.104872  84.9476  3.808220  0.092862
  10640.788  10640.780  0.500  3.101006  84.826  3.817504  0.093323
  10646.890  10646.880  0.500  3.098625  84.754  3.823355  0.093817
  10653.146  10653.150  0.500  3.120279  84.6244  3.735731  0.089151
  10659.612  10659.590  0.500  3.155085  84.4884  3.602143  0.082834
  10666.220  10666.200  0.500  3.170133  84.3952  3.544431  0.079874
  10673.009  10672.990  0.500  3.160378  84.2486  3.572958  0.081413
  10679.979  10679.950  0.500  3.139930  83.7661  3.625884  0.084400
  10687.068  10687.070  0.500  3.114825  83.9856  3.727807  0.089309
  10694.380  10694.370  0.500  3.093228  83.835  3.802359  0.093533
  10701.856  10701.850  0.500  3.080546  83.7234  3.845765  0.095546
  10709.512  10709.490  0.500  3.073018  83.5663  3.867555  0.096945
  10717.308  10717.300  0.500  3.073604  83.4129  3.858191  0.096767
  10725.301  10725.290  0.500  3.075287  83.2605  3.844668  0.096179
  10733.460  10733.450  0.500  3.071180  83.1034  3.853206  0.096588
  10741.793  10741.770  0.500  3.070477  82.8114  3.842371  0.096374
  10750.274  10750.270  0.500  3.075340  82.7691  3.821775  0.095149
  10758.959  10758.950  0.500  3.076831  82.6089  3.808695  0.094676
  10767.810  10767.790  0.500  3.071805  82.4279  3.819497  0.095432
  10776.806  10776.800  0.500  3.062691  82.2618  3.846702  0.096835
  10786.020  10785.990  0.500  3.047474  81.7945  3.883494  0.099415
  10795.346  10795.350  0.500  3.030565  81.893  3.954479  0.103082
  10804.896  10804.870  0.500  3.019105  81.6966  3.990461  0.105266
  10815.564  10814.570  0.500  3.013465  81.2672  3.991940  0.105874
  10824.485  10824.450  0.500  3.014087  81.6116  4.006367  0.105955
  10834.489  10834.490  0.500  3.011243  81.4245  4.008566  0.106352
  10844.707  10844.700  0.500  3.000773  81.2059  4.039881  0.108371
  10855.118  10855.090  0.500  2.992782  80.7335  4.048605  0.109442
  10865.667  10865.650  0.500  2.990763  80.7981  4.060030  0.110164
  10876.386  10876.380  0.500  2.987153  80.5144  4.060410  0.110236
  10887.281  10887.280  0.500  2.978403  80.3887  4.089697  0.112194
  10898.353  10898.350  0.500  2.969447  80.1785  4.115697  0.113877
  10909.592  10909.590  0.500  2.958107  79.9533  4.150943  0.116187
  10920.995  10921.010  0.500  2.946443  79.7362  4.188242  0.118591
  10932.583  10932.590  0.500  2.935998  79.51  4.220209  0.120849
  10944.362  10944.350  0.500  2.928833  79.292  4.238903  0.121997
  10956.282  10956.280  0.500  2.921445  79.054  4.257513  0.123520
  10968.379  10968.380  0.500  2.909519  78.824  4.296064  0.126261
  10980.661  10980.650  0.500  2.896293  78.5242  4.336699  0.129008
  10993.087  10993.090  0.500  2.887902  78.3691  4.364603  0.131011
  11005.719  11005.710  0.500  2.882015  78.126  4.376759  0.132092
  11018.513  11018.490  0.500  2.876712  77.8846  4.386434  0.133059
  11031.454  11031.450  0.500  2.869713  77.6318  4.402908  0.134277
  11044.610  11044.580  0.500  2.859743  77.385  4.432882  0.136589
  11057.900  11057.880  0.500  2.846833  77.1352  4.475982  0.139670
  11071.382  11071.350  0.500  2.832256  76.886  4.527039  0.143615
  11085.031  11085.000  0.500  2.819487  76.616  4.569115  0.146759
  11098.842  11098.810  0.500  2.810616  76.2819  4.589723  0.148500
  11112.839  11112.800  0.500  2.801391  76.0295  4.616930  0.150566
  11126.995  11126.960  0.500  2.790030  75.8348  4.657729  0.154040
  11141.317  11141.290  0.500  2.778782  75.5634  4.693553  0.156870
  11155.834  11155.790  0.500  2.769835  75.2945  4.718884  0.159167
  11170.486  11170.460  0.500  2.759810  75.0148  4.748717  0.161898
  11185.330  11185.300  0.500  2.749047  74.743  4.782714  0.164923
  11200.334  11200.320  0.500  2.737462  74.4603  4.820150  0.168141
  11215.543  11215.500  0.500  2.724795  74.1574  4.861729  0.171452
  11230.876  11230.860  0.500  2.712569  73.8327  4.899992  0.174994
  11246.428  11246.390  0.500  2.700246  73.6862  4.950901  0.179200
  11262.111  11262.090  0.500  2.689709  73.3319  4.979287  0.181945
  11277.972  11277.960  0.500  2.679393  72.9972  5.007956  0.184823
  11294.044  11294.010  0.500  2.667558  72.6185  5.041288  0.188507
  11310.241  11310.220  0.500  2.653927  72.3834  5.093932  0.192786
  11326.641  11326.610  0.500  2.640713  72.102  5.141623  0.197245
  11343.191  11343.170  0.500  2.628704  71.665  5.172204  0.200661
  11359.929  11359.900  0.500  2.616714  63.1393  4.611851  0.181276
  11376.825  11376.800  0.500  2.604803  69.7422  5.155181  0.205031
  11388.189  11388.160  0.500  2.596880  70.8322  5.277402  0.211763