File: xdidata/Re/Re-L3-Rhenium_metal.xdi
# XDI/1.0 BlueSky/1.10.0 BMM/2023-1.0-py310-tiled
# Beamline.name: BMM (06BM) -- Beamline for Materials Measurement (NIST)
# Beamline.xray_source: NSLS-II three-pole wiggler
# Beamline.collimation: paraboloid mirror, 5 nm Rh on 30 nm Pt
# Beamline.focusing: not in use
# Beamline.harmonic_rejection: flat mirror, Pt stripe, pitch = 7.0 mrad relative to beam
# Beamline.software: Bluesky 1.10.0, Ophyd 1.7.0, DataBroker 2.0.0b13, Python 3.10.8, 2023-1.0-py310-tiled
# Detector.I0: 10 cm N2
# Detector.I1: 25 cm N2
# Detector.I2: 25 cm N2
# Element.symbol: Re
# Element.edge: L3
# Element.reference: Re
# Element.reference_material: ReO2
# Facility.name: NSLS-II
# Facility.energy: 3.0
# Facility.current: 400.2
# Facility.mode: top-off
# Facility.GUP: 301027
# Facility.SAF: 310583
# Facility.cycle: 2023-2
# Mono.name: Si(111)
# Mono.d_spacing: 3.13519
# Mono.encoder_resolution: 0.0000050 deg/ct
# Mono.angle_offset: 16.0754 deg
# Mono.scan_mode: pseudo channel cut
# Mono.scan_type: step
# Mono.direction: forward in energy
# Sample.name: Re metal powder
# Sample.prep: powder on tape
# Sample.x: 145.711 mm
# Sample.y: 114.376 mm
# Sample.SDD_position: 205.000 mm
# Scan.experimenters: Bruce Ravel
# Scan.edge_energy: 10535.3
# Scan.start_time: 2023-06-27T16:38:16
# Scan.end_time: 2023-06-27T16:45:56
# Scan.transient_id: 85158
# Scan.uid: 2201814a-d1c6-4d52-9a96-520896fe0036
# Scan.plot_hint: ln(I0/It)  --  ln($5/$6)
# Column.1: energy eV
# Column.2: requested_energy eV
# Column.3: measurement_time seconds
# Column.4: xmu
# Column.5: I0 nA
# Column.6: It nA
# Column.7: Ir nA
# ///////////
# Welcome to BMM
# -----------
# energy  requested_energy  measurement_time  xmu  I0  It  Ir
  10335.292  10335.300  0.500  3.226643  90.3908  3.587660  0.473128
  10365.342  10365.300  0.500  3.197726  89.8588  3.671181  0.492287
  10395.351  10395.300  0.500  3.170046  89.2802  3.749916  0.511164
  10425.349  10425.300  0.500  3.143300  88.7308  3.827865  0.529976
  10455.396  10455.300  0.500  3.120533  88.1785  3.891639  0.545919
  10485.357  10485.300  0.500  3.111693  87.6266  3.901621  0.550810
  10507.281  10507.300  0.500  3.149672  87.2305  3.739239  0.518893
  10513.280  10513.300  0.500  3.187286  87.0535  3.593897  0.489270
  10519.282  10519.300  0.500  3.264291  87.0022  3.325575  0.436475
  10525.291  10525.300  0.500  3.450268  86.7935  2.754575  0.331789
  10526.165  10526.200  0.500  3.499035  86.6148  2.618065  0.308248
  10527.068  10527.100  0.500  3.559765  86.6842  2.465776  0.282891
  10527.967  10528.000  0.500  3.631337  86.7423  2.297001  0.255049
  10528.865  10528.900  0.500  3.716498  86.787  2.110572  0.225909
  10529.773  10529.800  0.500  3.825428  86.7778  1.892547  0.193676
  10530.682  10530.700  0.500  3.969048  86.758  1.638981  0.158341
  10531.595  10531.600  0.500  4.155028  86.7379  1.360514  0.121796
  10532.485  10532.500  0.500  4.398114  86.718  1.066676  0.087169
  10533.384  10533.400  0.500  4.713837  86.6976  0.777703  0.056437
  10534.289  10534.300  0.500  5.140770  86.6791  0.507348  0.031625
  10535.188  10535.200  0.500  5.722571  86.6586  0.283485  0.014370
  10536.098  10536.100  0.500  6.473121  86.6384  0.133804  0.005138
  10536.993  10537.000  0.500  7.330925  86.623  0.056735  0.001302
  10537.903  10537.900  0.500  8.116054  86.5986  0.025867  0.000328
  10538.784  10538.800  0.500  8.665579  86.5711  0.014927  0.000196
  10539.684  10539.700  0.500  8.967256  86.542  0.011036  0.000015
  10540.604  10540.600  0.500  9.038292  86.697  0.010297  -0.000086
  10541.510  10541.500  0.500  8.833517  86.7253  0.012641  0.000000
  10542.396  10542.400  0.500  8.507554  86.7452  0.017517  0.000049
  10543.283  10543.300  0.500  8.125910  86.7227  0.025650  -0.000071
  10544.193  10544.200  0.500  7.755432  86.7031  0.037144  0.000013
  10545.100  10545.100  0.500  7.431391  86.6839  0.051348  0.000196
  10545.996  10546.000  0.500  7.192212  86.6641  0.065208  0.000322
  10546.908  10546.900  0.500  7.034097  86.6425  0.076359  0.000626
  10547.814  10547.800  0.500  6.935182  86.6231  0.084280  0.000875
  10548.692  10548.700  0.500  6.868692  86.5948  0.090044  0.001280
  10549.590  10549.600  0.500  6.811932  86.5764  0.095283  0.001620
  10550.502  10550.500  0.500  6.773570  86.5499  0.098979  0.001792
  10551.399  10551.400  0.500  6.759237  86.5272  0.100381  0.001958
  10552.297  10552.300  0.500  6.750931  86.5092  0.101198  0.002029
  10553.205  10553.200  0.500  6.741368  86.4868  0.102144  0.002232
  10554.108  10554.100  0.500  6.711750  86.4678  0.105191  0.002308
  10555.001  10555.000  0.500  6.660363  86.4299  0.110689  0.002532
  10555.895  10555.900  0.500  6.585224  86.3282  0.119186  0.002732
  10556.798  10556.800  0.500  6.497452  86.3018  0.130080  0.003052
  10557.706  10557.700  0.500  6.413635  86.3061  0.141461  0.003548
  10558.596  10558.600  0.500  6.340359  86.1498  0.151940  0.003941
  10559.500  10559.500  0.500  6.281371  86.2238  0.161310  0.004223
  10560.297  10560.300  0.500  6.243196  86.3144  0.167764  0.004464
  10563.325  10563.310  0.500  6.229891  86.263  0.169909  0.004704
  10566.509  10566.500  0.500  6.267461  86.1991  0.163523  0.004431
  10569.864  10569.860  0.500  6.216763  86.1308  0.171891  0.004469
  10573.392  10573.380  0.500  6.151132  86.0636  0.183407  0.004794
  10577.091  10577.080  0.500  6.074633  85.991  0.197822  0.005088
  10580.968  10580.950  0.500  6.010658  85.9142  0.210702  0.005055
  10585.013  10585.000  0.500  6.045760  85.8103  0.203189  0.004557
  10589.227  10589.210  0.500  6.096819  85.7617  0.192965  0.003813
  10593.599  10593.590  0.500  6.125439  85.6737  0.187328  0.003734
  10598.161  10598.150  0.500  6.155871  85.5512  0.181453  0.003871
  10602.897  10602.880  0.500  6.164553  85.4948  0.179766  0.004132
  10607.808  10607.780  0.500  6.153490  85.3844  0.181532  0.004384
  10612.870  10612.850  0.500  6.125806  85.2396  0.186311  0.004757
  10618.108  10618.090  0.500  6.082231  85.1624  0.194432  0.005125
  10623.528  10623.510  0.500  6.024110  85.0955  0.205906  0.005227
  10629.095  10629.090  0.500  6.002436  84.9868  0.210149  0.005298
  10634.860  10634.850  0.500  6.047221  84.8716  0.200672  0.005042
  10640.793  10640.780  0.500  6.072593  84.7385  0.195338  0.004860
  10646.899  10646.880  0.500  6.088225  84.6583  0.192126  0.004781
  10653.176  10653.150  0.500  6.099206  84.521  0.189720  0.004583
  10659.608  10659.590  0.500  6.139287  84.3701  0.181941  0.004264
  10666.210  10666.200  0.500  6.156502  84.275  0.178634  0.004158
  10672.994  10672.990  0.500  6.118527  84.1263  0.185221  0.004261
  10679.959  10679.950  0.500  6.019460  83.6392  0.203325  0.004755
  10687.093  10687.070  0.500  5.973547  83.8626  0.213447  0.005301
  10694.380  10694.370  0.500  6.000570  83.709  0.207376  0.005090
  10701.851  10701.850  0.500  6.021207  83.5878  0.202846  0.005144
  10709.507  10709.490  0.500  6.040453  83.4323  0.198609  0.004977
  10717.318  10717.300  0.500  6.045580  83.2809  0.197235  0.005050
  10725.301  10725.290  0.500  6.066697  83.1203  0.192741  0.005031
  10733.455  10733.450  0.500  6.094361  82.9688  0.187140  0.004778
  10741.783  10741.770  0.500  6.043342  82.6582  0.196198  0.004988
  10750.279  10750.270  0.500  5.968239  82.6328  0.211436  0.005397
  10758.964  10758.950  0.500  5.953535  82.4568  0.214111  0.005367
  10767.805  10767.790  0.500  5.927337  82.2884  0.219345  0.005564
  10776.796  10776.800  0.500  5.932499  82.1151  0.217757  0.005534
  10786.000  10785.990  0.500  5.987845  81.6525  0.204872  0.005189
  10795.356  10795.350  0.500  6.013550  82.0115  0.200550  0.005316
  10804.901  10804.870  0.500  5.994769  81.8128  0.203857  0.005418
  10814.564  10814.570  0.500  5.955628  81.4649  0.211093  0.005841
  10824.449  10824.450  0.500  5.912909  81.4724  0.220326  0.005802
  10834.586  10834.490  0.500  5.891300  81.2648  0.224566  0.006090
  10844.697  10844.700  0.500  5.882823  81.0482  0.225874  0.006128
  10855.103  10855.090  0.500  5.886341  80.5757  0.223768  0.006109
  10865.667  10865.650  0.500  5.911499  80.6494  0.218409  0.006022
  10876.407  10876.380  0.500  5.930606  80.3561  0.213496  0.005841
  10887.297  10887.280  0.500  5.897915  80.2395  0.220270  0.006020
  10898.358  10898.350  0.500  5.848201  80.0251  0.230879  0.006553
  10909.582  10909.590  0.500  5.826561  79.8142  0.235308  0.006644
  10921.011  10921.010  0.500  5.821383  79.5983  0.235890  0.006734
  10932.567  10932.590  0.500  5.807015  79.3752  0.238633  0.006915
  10944.347  10944.350  0.500  5.802416  79.1566  0.239073  0.006992
  10956.282  10956.280  0.500  5.804978  78.9182  0.237743  0.007061
  10968.374  10968.380  0.500  5.819208  78.6882  0.233701  0.006862
  10980.661  10980.650  0.500  5.809843  78.3846  0.234989  0.007090
  10993.092  10993.090  0.500  5.753381  78.2176  0.248109  0.007550
  11005.709  11005.710  0.500  5.713598  77.9758  0.257380  0.007777
  11018.503  11018.490  0.500  5.695010  77.7468  0.261440  0.008005
  11031.469  11031.450  0.500  5.702991  77.5063  0.258559  0.007997
  11044.579  11044.580  0.500  5.714634  77.249  0.254717  0.007982
  11057.905  11057.880  0.500  5.713105  77.0164  0.254339  0.008218
  11071.382  11071.350  0.500  5.696049  76.7778  0.257913  0.008257
  11085.015  11085.000  0.500  5.673482  76.5002  0.262845  0.008708
  11098.842  11098.810  0.500  5.644171  76.1555  0.269444  0.008972
  11112.833  11112.800  0.500  5.606958  75.9207  0.278798  0.009241
  11126.989  11126.960  0.500  5.584030  75.7103  0.284473  0.009576
  11141.317  11141.290  0.500  5.584238  75.4503  0.283437  0.009496
  11155.823  11155.790  0.500  5.584866  75.1803  0.282246  0.009664
  11170.475  11170.460  0.500  5.586025  74.9228  0.280953  0.009618
  11185.336  11185.300  0.500  5.571039  74.6384  0.284113  0.009834
  11200.340  11200.320  0.500  5.541878  74.3455  0.291372  0.010179
  11215.537  11215.500  0.500  5.520631  74.0682  0.296518  0.010649
  11230.887  11230.860  0.500  5.494883  73.7527  0.302957  0.011056
  11246.422  11246.390  0.500  5.453308  73.5886  0.315115  0.011609
  11262.111  11262.090  0.500  5.442189  73.2248  0.317063  0.011726
  11277.983  11277.960  0.500  5.448818  72.9054  0.313594  0.011817
  11294.039  11294.010  0.500  5.456805  72.5279  0.309489  0.011681
  11310.247  11310.220  0.500  5.434542  72.2779  0.315365  0.012103
  11326.641  11326.610  0.500  5.400680  71.9964  0.324957  0.012684
  11343.202  11343.170  0.500  5.372924  71.5764  0.332153  0.012903
  11359.912  11359.900  0.500  5.351438  63.7122  0.302080  0.012011
  11376.836  11376.800  0.500  5.326473  69.6283  0.338476  0.013638
  11388.189  11388.160  0.500  5.311365  70.7007  0.348921  0.014287