File: xdidata/Re/Re-L1-AmmoniumPerrhenate.xdi
# XDI/1.0 BlueSky/1.10.0 BMM/2023-1.0-py310-tiled
# Beamline.name: BMM (06BM) -- Beamline for Materials Measurement (NIST)
# Beamline.xray_source: NSLS-II three-pole wiggler
# Beamline.collimation: paraboloid mirror, 5 nm Rh on 30 nm Pt
# Beamline.focusing: not in use
# Beamline.harmonic_rejection: flat mirror, Pt stripe, pitch = 7.0 mrad relative to beam
# Beamline.software: Bluesky 1.10.0, Ophyd 1.7.0, DataBroker 2.0.0b13, Python 3.10.8, 2023-1.0-py310-tiled
# Detector.I0: 10 cm N2
# Detector.I1: 25 cm N2
# Detector.I2: 25 cm N2
# Element.symbol: Re
# Element.edge: L1
# Element.reference: Re
# Element.reference_material: ReO2
# Facility.name: NSLS-II
# Facility.energy: 3.0
# Facility.current: 399.3
# Facility.mode: top-off
# Facility.GUP: 301027
# Facility.SAF: 310583
# Facility.cycle: 2023-2
# Mono.name: Si(111)
# Mono.d_spacing: 3.13519
# Mono.encoder_resolution: 0.0000050 deg/ct
# Mono.angle_offset: 16.0754 deg
# Mono.scan_mode: pseudo channel cut
# Mono.scan_type: step
# Mono.direction: forward in energy
# Sample.name: NH4ReO4, Ammonium perrhenate
# Sample.prep: powder on tape
# Sample.x: 145.711 mm
# Sample.y: 114.376 mm
# Sample.SDD_position: 205.000 mm
# Scan.experimenters: Bruce Ravel
# Scan.edge_energy: 12526.7
# Scan.start_time: 2023-06-27T18:43:03
# Scan.end_time: 2023-06-27T18:50:43
# Scan.transient_id: 85234
# Scan.uid: 8e855c53-5529-4d10-b8fa-0d70eacc2ec4
# Scan.plot_hint: ln(I0/It)  --  ln($5/$6)
# Column.1: energy eV
# Column.2: requested_energy eV
# Column.3: measurement_time seconds
# Column.4: xmu
# Column.5: I0 nA
# Column.6: It nA
# Column.7: Ir nA
# ///////////
# Welcome to BMM
# -----------
# energy  requested_energy  measurement_time  xmu  I0  It  Ir
  12326.685  12326.700  0.500  3.129444  55.1757  2.413501  0.081440
  12356.764  12356.700  0.500  3.105479  54.8603  2.457911  0.084726
  12386.751  12386.700  0.500  3.088782  54.7586  2.494661  0.087422
  12416.739  12416.700  0.500  3.074143  55.0063  2.542899  0.090750
  12446.698  12446.700  0.500  3.058327  54.6933  2.568737  0.092830
  12476.716  12476.700  0.500  3.040081  54.3152  2.597954  0.095291
  12498.666  12498.700  0.500  3.028341  54.0727  2.616897  0.097331
  12504.660  12504.700  0.500  3.025948  53.9885  2.619079  0.097401
  12510.652  12510.700  0.500  3.025208  53.9214  2.617762  0.097567
  12516.665  12516.700  0.500  3.026701  53.8433  2.610068  0.097115
  12517.539  12517.600  0.500  3.027028  53.8257  2.608364  0.097092
  12518.454  12518.500  0.500  3.027667  53.8115  2.606011  0.096659
  12519.369  12519.400  0.500  3.028682  53.7969  2.602662  0.096567
  12520.250  12520.300  0.500  3.029939  53.7801  2.598579  0.096308
  12521.159  12521.200  0.500  3.030932  53.7664  2.595340  0.096074
  12522.067  12522.100  0.500  3.032895  53.7503  2.589473  0.095724
  12522.970  12523.000  0.500  3.034831  53.745  2.584206  0.095343
  12523.892  12523.900  0.500  3.037378  53.7229  2.576578  0.094758
  12524.788  12524.800  0.500  3.040256  53.7175  2.568912  0.094262
  12525.697  12525.700  0.500  3.044421  53.6971  2.557267  0.093619
  12526.586  12526.600  0.500  3.049677  53.6888  2.543465  0.092913
  12527.482  12527.500  0.500  3.055763  53.6664  2.526978  0.091804
  12528.392  12528.400  0.500  3.063991  53.6517  2.505585  0.090383
  12529.288  12529.300  0.500  3.074330  53.6276  2.478701  0.088648
  12530.177  12530.200  0.500  3.088586  53.6246  2.443477  0.086673
  12531.060  12531.100  0.500  3.107323  53.6054  2.397262  0.083913
  12531.970  12532.000  0.500  3.133133  53.5943  2.335694  0.080816
  12532.888  12532.900  0.500  3.166075  53.5754  2.259209  0.076839
  12533.784  12533.800  0.500  3.203256  53.5567  2.175990  0.073236
  12534.688  12534.700  0.500  3.238098  53.5416  2.100889  0.069816
  12535.599  12535.600  0.500  3.259354  53.5283  2.056194  0.067615
  12536.489  12536.500  0.500  3.260042  53.5145  2.054250  0.066781
  12537.393  12537.400  0.500  3.243135  53.4956  2.088537  0.067273
  12538.291  12538.300  0.500  3.219091  53.4793  2.138710  0.068008
  12539.202  12539.200  0.500  3.197750  53.4387  2.183186  0.068474
  12540.073  12540.100  0.500  3.183106  53.2832  2.208943  0.068286
  12540.998  12541.000  0.500  3.176585  53.0084  2.211929  0.066939
  12541.889  12541.900  0.500  3.176314  53.117  2.217060  0.065499
  12542.787  12542.800  0.500  3.181089  53.3444  2.215947  0.064116
  12543.699  12543.700  0.500  3.189695  53.4166  2.199934  0.062102
  12544.598  12544.600  0.500  3.201486  53.4155  2.174100  0.060123
  12545.517  12545.500  0.500  3.217239  53.3935  2.139238  0.057619
  12546.402  12546.400  0.500  3.235427  53.3773  2.100047  0.055471
  12547.314  12547.300  0.500  3.255118  53.3649  2.058620  0.053318
  12548.199  12548.200  0.500  3.275292  53.3524  2.017031  0.051495
  12549.105  12549.100  0.500  3.293511  53.3381  1.980085  0.049847
  12549.991  12550.000  0.500  3.310455  53.3319  1.946591  0.048229
  12550.904  12550.900  0.500  3.326166  53.3145  1.915621  0.047197
  12551.693  12551.700  0.500  3.339445  53.3035  1.889964  0.046094
  12554.729  12554.710  0.500  3.388113  53.263  1.798816  0.043208
  12557.910  12557.900  0.500  3.421650  53.2175  1.738002  0.042225
  12561.272  12561.260  0.500  3.427858  53.1703  1.725715  0.042234
  12564.808  12564.780  0.500  3.422887  53.1304  1.733016  0.042500
  12568.483  12568.480  0.500  3.433233  53.0787  1.713507  0.043171
  12572.361  12572.350  0.500  3.452152  53.0295  1.679835  0.043712
  12576.413  12576.400  0.500  3.458417  52.9696  1.667460  0.044318
  12580.626  12580.610  0.500  3.451473  52.9254  1.677678  0.045165
  12585.008  12584.990  0.500  3.433830  53.0573  1.711794  0.046432
  12589.552  12589.550  0.500  3.404188  52.9977  1.761313  0.048110
  12594.293  12594.280  0.500  3.378543  52.9423  1.805178  0.049191
  12599.183  12599.180  0.500  3.361346  52.8851  1.834507  0.050198
  12604.278  12604.250  0.500  3.346884  52.823  1.859042  0.050749
  12609.494  12609.490  0.500  3.336641  52.7624  1.876029  0.050681
  12614.923  12614.910  0.500  3.330736  52.6978  1.884829  0.050450
  12620.496  12620.490  0.500  3.328170  52.6118  1.886588  0.050415
  12626.240  12626.250  0.500  3.328758  52.5461  1.883123  0.050516
  12632.198  12632.180  0.500  3.330378  52.4737  1.877485  0.050823
  12638.280  12638.280  0.500  3.333475  52.4079  1.869334  0.051003
  12644.571  12644.550  0.500  3.337944  52.3341  1.858376  0.050739
  12651.000  12650.990  0.500  3.342527  52.2512  1.846951  0.050883
  12657.597  12657.600  0.500  3.344483  52.1819  1.840896  0.051282
  12664.396  12664.390  0.500  3.343606  52.0985  1.839566  0.051522
  12671.377  12671.350  0.500  3.340470  52.0134  1.842331  0.051909
  12678.493  12678.470  0.500  3.333666  51.9326  1.852027  0.052640
  12685.778  12685.770  0.500  3.324889  51.8369  1.864910  0.052906
  12693.275  12693.250  0.500  3.314715  51.7408  1.880487  0.053470
  12700.915  12700.890  0.500  3.303939  51.6542  1.897682  0.054046
  12708.712  12708.700  0.500  3.294322  51.556  1.912375  0.054571
  12716.702  12716.690  0.500  3.285404  51.4699  1.926285  0.055336
  12724.879  12724.850  0.500  3.277203  51.3661  1.938232  0.055957
  12733.200  12733.170  0.500  3.270111  51.2518  1.947681  0.056582
  12741.703  12741.670  0.500  3.264280  51.1693  1.955919  0.057178
  12750.358  12750.350  0.500  3.258979  51.071  1.962535  0.057796
  12759.196  12759.190  0.500  3.255048  50.9692  1.966339  0.058614
  12768.218  12768.200  0.500  3.251051  50.8599  1.969980  0.058906
  12777.422  12777.390  0.500  3.248219  50.7457  1.971134  0.059430
  12786.783  12786.750  0.500  3.243810  50.6398  1.975712  0.059833
  12796.322  12796.270  0.500  3.238687  50.523  1.981276  0.060316
  12806.004  12805.970  0.500  3.232560  50.413  1.989115  0.060723
  12815.880  12815.850  0.500  3.225959  50.2918  1.997473  0.061483
  12825.929  12825.890  0.500  3.218174  50.1706  2.008234  0.062045
  12836.117  12836.100  0.500  3.210085  50.0453  2.019485  0.062879
  12846.515  12846.490  0.500  3.201635  49.9285  2.031872  0.063832
  12857.081  12857.050  0.500  3.193296  49.8047  2.043804  0.064662
  12867.795  12867.780  0.500  3.185278  49.6837  2.055255  0.065340
  12878.715  12878.680  0.500  3.177484  49.4227  2.060455  0.065947
  12889.770  12889.750  0.500  3.169194  49.4228  2.077609  0.066851
  12901.048  12900.990  0.500  3.161927  49.236  2.084852  0.067863
  12912.447  12912.410  0.500  3.154924  49.1379  2.095320  0.068733
  12924.034  12923.990  0.500  3.147973  49.0216  2.104941  0.069463
  12935.715  12935.750  0.500  3.140966  48.8879  2.113961  0.070065
  12947.688  12947.680  0.500  3.133790  48.7181  2.121792  0.071097
  12959.801  12959.780  0.500  3.126364  48.6213  2.133356  0.072124
  12972.084  12972.050  0.500  3.118283  48.4722  2.144071  0.073144
  12984.522  12984.490  0.500  3.109809  48.3323  2.156080  0.073691
  12997.139  12997.110  0.500  3.101264  48.191  2.168222  0.074720
  13009.922  13009.890  0.500  3.092313  48.0452  2.181099  0.075742
  13022.885  13022.850  0.500  3.082867  47.8979  2.195048  0.077062
  13036.001  13035.980  0.500  3.073634  47.744  2.208290  0.078099
  13049.306  13049.280  0.500  3.064617  47.5475  2.219122  0.079135
  13062.781  13062.750  0.500  3.055670  47.4314  2.233603  0.080413
  13076.441  13076.400  0.500  3.046899  47.2713  2.245670  0.081406
  13090.249  13090.210  0.500  3.038298  47.1193  2.257787  0.082592
  13104.228  13104.200  0.500  3.029943  46.9447  2.268293  0.083817
  13118.389  13118.360  0.500  3.021116  46.7445  2.278642  0.084572
  13132.731  13132.690  0.500  3.012546  46.7532  2.298686  0.086063
  13147.240  13147.190  0.500  3.004062  46.5961  2.310480  0.087446
  13161.910  13161.860  0.500  2.994661  46.4301  2.323993  0.088772
  13176.742  13176.700  0.500  2.985122  46.2617  2.337757  0.089963
  13191.753  13191.720  0.500  2.975702  46.0848  2.350858  0.091220
  13206.942  13206.900  0.500  2.965785  45.9045  2.364999  0.092828
  13222.305  13222.260  0.500  2.955712  45.724  2.379549  0.094200
  13237.833  13237.790  0.500  2.945321  45.5305  2.394229  0.095607
  13253.529  13253.490  0.500  2.935063  45.3239  2.407942  0.096750
  13269.416  13269.360  0.500  2.925306  45.0041  2.414391  0.098188
  13285.434  13285.410  0.500  2.914946  44.368  2.405055  0.098804
  13301.661  13301.620  0.500  2.905212  44.1263  2.415352  0.100412
  13318.037  13318.010  0.500  2.895444  44.001  2.432130  0.101794
  13334.617  13334.570  0.500  2.885692  43.7879  2.444073  0.103285
  13351.331  13351.300  0.500  2.875803  43.6648  2.461421  0.104951
  13368.229  13368.200  0.500  2.866008  43.4824  2.475269  0.106732
  13379.596  13379.560  0.500  2.859429  43.3556  2.484338  0.107716