File: xdidata/Re/Re-L3-AmmoniumPerrhenate.xdi
# XDI/1.0 BlueSky/1.10.0 BMM/2023-1.0-py310-tiled
# Beamline.name: BMM (06BM) -- Beamline for Materials Measurement (NIST)
# Beamline.xray_source: NSLS-II three-pole wiggler
# Beamline.collimation: paraboloid mirror, 5 nm Rh on 30 nm Pt
# Beamline.focusing: not in use
# Beamline.harmonic_rejection: flat mirror, Pt stripe, pitch = 7.0 mrad relative to beam
# Beamline.software: Bluesky 1.10.0, Ophyd 1.7.0, DataBroker 2.0.0b13, Python 3.10.8, 2023-1.0-py310-tiled
# Detector.I0: 10 cm N2
# Detector.I1: 25 cm N2
# Detector.I2: 25 cm N2
# Element.symbol: Re
# Element.edge: L3
# Element.reference: Re
# Element.reference_material: ReO2
# Facility.name: NSLS-II
# Facility.energy: 3.0
# Facility.current: 400.9
# Facility.mode: top-off
# Facility.GUP: 301027
# Facility.SAF: 310583
# Facility.cycle: 2023-2
# Mono.name: Si(111)
# Mono.d_spacing: 3.13519
# Mono.encoder_resolution: 0.0000050 deg/ct
# Mono.angle_offset: 16.0754 deg
# Mono.scan_mode: pseudo channel cut
# Mono.scan_type: step
# Mono.direction: forward in energy
# Sample.name: NH4ReO4, Ammonium perrhenate
# Sample.prep: powder on tape
# Sample.x: 145.711 mm
# Sample.y: 114.376 mm
# Sample.SDD_position: 205.000 mm
# Scan.experimenters: Bruce Ravel
# Scan.edge_energy: 10535.3
# Scan.start_time: 2023-06-27T16:30:02
# Scan.end_time: 2023-06-27T16:37:40
# Scan.transient_id: 85153
# Scan.uid: 27e023b9-72bc-4680-93cf-c74abc5f67f9
# Scan.plot_hint: ln(I0/It)  --  ln($5/$6)
# Column.1: energy eV
# Column.2: requested_energy eV
# Column.3: measurement_time seconds
# Column.4: xmu
# Column.5: I0 nA
# Column.6: It nA
# Column.7: Ir nA
# ///////////
# Welcome to BMM
# -----------
# energy  requested_energy  measurement_time  xmu  I0  It  Ir
  10335.310  10335.300  0.500  1.659925  90.3575  17.1818  2.280185
  10365.342  10365.300  0.500  1.641376  89.8336  17.4019  2.347723
  10395.360  10395.300  0.500  1.624013  89.2699  17.5956  2.412466
  10425.311  10425.300  0.500  1.606722  88.7459  17.7974  2.476527
  10455.287  10455.300  0.500  1.591432  88.1786  17.9561  2.533332
  10485.376  10485.300  0.500  1.583863  87.6497  17.984  2.552713
  10507.309  10507.300  0.500  1.601452  87.2591  17.5918  2.452317
  10513.290  10513.300  0.500  1.619688  87.0825  17.2389  2.360178
  10519.297  10519.300  0.500  1.654864  87.0342  16.6338  2.194159
  10525.286  10525.300  0.500  1.733162  86.8251  15.3441  1.856923
  10526.170  10526.200  0.500  1.752259  86.6503  15.0236  1.778962
  10527.063  10527.100  0.500  1.775053  86.7164  14.6962  1.693908
  10527.962  10528.000  0.500  1.801436  86.7805  14.3241  1.600329
  10528.880  10528.900  0.500  1.832268  86.8221  13.8959  1.495214
  10529.773  10529.800  0.500  1.869117  86.81  13.3913  1.376392
  10530.687  10530.700  0.500  1.915543  86.795  12.7816  1.238149
  10531.591  10531.600  0.500  1.972682  86.7798  12.0696  1.084257
  10532.480  10532.500  0.500  2.041947  86.7541  11.2586  0.920206
  10533.384  10533.400  0.500  2.128681  86.7269  10.32  0.745294
  10534.284  10534.300  0.500  2.239123  86.7166  9.239817  0.566994
  10535.183  10535.200  0.500  2.386786  86.693  7.969226  0.388576
  10536.088  10536.100  0.500  2.586020  86.6765  6.528412  0.231397
  10536.998  10537.000  0.500  2.860105  86.6506  4.961854  0.112861
  10537.903  10537.900  0.500  3.228827  86.6286  3.430831  0.044296
  10538.798  10538.800  0.500  3.725619  86.6085  2.087109  0.013857
  10539.689  10539.700  0.500  4.415971  86.5436  1.045691  0.003439
  10540.589  10540.600  0.500  5.327538  86.4714  0.419906  0.000881
  10541.485  10541.500  0.500  6.347537  86.509  0.151482  0.000295
  10542.396  10542.400  0.500  7.242293  86.5297  0.061927  0.000161
  10543.302  10543.300  0.500  7.790854  86.5092  0.035772  0.000210
  10544.203  10544.200  0.500  7.719618  86.4816  0.038400  0.000121
  10545.100  10545.100  0.500  6.945732  86.4695  0.083247  0.000499
  10545.992  10546.000  0.500  5.962318  86.4448  0.222504  0.001299
  10546.888  10546.900  0.500  5.144234  86.4243  0.504108  0.003962
  10547.805  10547.800  0.500  4.568891  86.4065  0.895988  0.010032
  10548.707  10548.700  0.500  4.205231  86.3799  1.288559  0.018474
  10549.599  10549.600  0.500  4.008911  86.3534  1.567587  0.026978
  10550.497  10550.500  0.500  3.937689  86.3385  1.683015  0.032608
  10551.385  10551.400  0.500  3.945898  86.3196  1.668889  0.034734
  10552.292  10552.300  0.500  3.994896  86.2932  1.588602  0.034613
  10553.200  10553.200  0.500  4.059698  86.2753  1.488613  0.033106
  10554.098  10554.100  0.500  4.115548  86.2516  1.407367  0.031833
  10555.001  10555.000  0.500  4.130489  86.209  1.385810  0.032049
  10555.890  10555.900  0.500  4.087549  86.1211  1.445139  0.034323
  10556.788  10556.800  0.500  4.004350  86.0839  1.569839  0.038273
  10557.697  10557.700  0.500  3.906025  86.0953  1.732264  0.043704
  10558.600  10558.600  0.500  3.808384  85.9387  1.906465  0.049397
  10559.500  10559.500  0.500  3.722393  86.0142  2.079483  0.055472
  10560.302  10560.300  0.500  3.657611  86.1034  2.220957  0.060284
  10563.334  10563.310  0.500  3.500232  86.0551  2.598036  0.072269
  10566.509  10566.500  0.500  3.424269  85.9997  2.801276  0.076037
  10569.879  10569.860  0.500  3.400170  85.9297  2.867270  0.076671
  10573.387  10573.380  0.500  3.357382  85.8592  2.990159  0.079525
  10577.087  10577.080  0.500  3.288682  85.7852  3.200045  0.083158
  10580.968  10580.950  0.500  3.252119  85.7092  3.316272  0.081884
  10585.018  10585.000  0.500  3.284589  85.6099  3.206601  0.071966
  10589.212  10589.210  0.500  3.350892  85.5586  2.999090  0.061037
  10593.595  10593.590  0.500  3.413293  85.7384  2.823585  0.056034
  10598.175  10598.150  0.500  3.471089  85.6138  2.661147  0.056437
  10602.902  10602.880  0.500  3.529133  85.5515  2.509253  0.057932
  10607.813  10607.780  0.500  3.574017  85.456  2.396441  0.058673
  10612.875  10612.850  0.500  3.599347  85.309  2.332484  0.059698
  10618.093  10618.090  0.500  3.594087  85.2328  2.342689  0.060975
  10623.523  10623.510  0.500  3.572069  85.1676  2.393010  0.062037
  10629.100  10629.090  0.500  3.538920  85.0495  2.470236  0.062989
  10634.879  10634.850  0.500  3.506118  84.9342  2.549145  0.064333
  10640.802  10640.780  0.500  3.468765  84.8135  2.642405  0.066983
  10646.890  10646.880  0.500  3.431955  84.7261  2.738661  0.069415
  10653.176  10653.150  0.500  3.402632  84.598  2.815890  0.069474
  10659.608  10659.590  0.500  3.384354  84.449  2.862783  0.068055
  10666.215  10666.200  0.500  3.381191  84.3567  2.868712  0.066972
  10673.009  10672.990  0.500  3.387872  84.2163  2.844869  0.067109
  10679.964  10679.950  0.500  3.403452  83.7313  2.784758  0.067230
  10687.078  10687.070  0.500  3.423499  83.953  2.736716  0.067532
  10694.395  10694.370  0.500  3.445219  83.7979  2.672969  0.067918
  10701.856  10701.850  0.500  3.461678  83.6938  2.626067  0.067572
  10709.507  10709.490  0.500  3.468775  83.5358  2.602572  0.067379
  10717.313  10717.300  0.500  3.467474  83.3821  2.601165  0.067400
  10725.306  10725.290  0.500  3.459393  83.2341  2.617618  0.067483
  10733.470  10733.450  0.500  3.445747  83.076  2.648541  0.068708
  10741.778  10741.770  0.500  3.428658  82.7735  2.684382  0.069559
  10750.289  10750.270  0.500  3.409188  82.75  2.736381  0.070786
  10758.964  10758.950  0.500  3.388797  82.5756  2.786866  0.071480
  10767.805  10767.790  0.500  3.370852  82.4071  2.831539  0.073009
  10776.811  10776.800  0.500  3.356684  82.2274  2.865678  0.074660
  10786.005  10785.990  0.500  3.348099  81.7739  2.874445  0.075899
  10795.361  10795.350  0.500  3.344902  81.8703  2.887048  0.077650
  10804.901  10804.870  0.500  3.345354  81.6821  2.879110  0.078460
  10814.575  10814.570  0.500  3.347665  81.3259  2.859934  0.078283
  10824.474  10824.450  0.500  3.352906  81.3411  2.845520  0.077790
  10834.510  10834.490  0.500  3.353988  81.1479  2.835688  0.077734
  10844.712  10844.700  0.500  3.352496  80.9402  2.832655  0.078466
  10855.093  10855.090  0.500  3.345666  80.4651  2.835326  0.079091
  10865.642  10865.650  0.500  3.335960  80.5454  2.865841  0.080034
  10876.438  10876.380  0.500  3.324434  80.246  2.888284  0.080956
  10887.276  10887.280  0.500  3.311148  80.1255  2.922518  0.082629
  10898.348  10898.350  0.500  3.297224  79.9159  2.955748  0.084336
  10909.598  10909.590  0.500  3.283010  79.692  2.989661  0.086237
  10920.995  10921.010  0.500  3.269645  79.476  3.021671  0.088146
  10932.562  10932.590  0.500  3.257868  79.26  3.049158  0.089913
  10944.326  10944.350  0.500  3.248327  79.0415  3.069904  0.091115
  10956.277  10956.280  0.500  3.240513  78.8101  3.084928  0.092323
  10968.385  10968.380  0.500  3.234191  78.5912  3.095867  0.093653
  10980.651  10980.650  0.500  3.228476  78.287  3.101562  0.095005
  10993.076  10993.090  0.500  3.222621  78.123  3.113239  0.096218
  11005.714  11005.710  0.500  3.215905  77.9042  3.125438  0.097349
  11018.508  11018.490  0.500  3.207412  77.6592  3.142184  0.098057
  11031.454  11031.450  0.500  3.197586  77.4161  3.163277  0.099424
  11044.589  11044.580  0.500  3.186390  77.1764  3.188986  0.101121
  11057.889  11057.880  0.500  3.173811  76.9283  3.218974  0.103639
  11071.366  11071.350  0.500  3.160070  76.6814  3.253037  0.106366
  11085.031  11085.000  0.500  3.146456  76.4348  3.287021  0.108859
  11098.821  11098.810  0.500  3.133242  76.3594  3.327461  0.110995
  11112.844  11112.800  0.500  3.121109  76.1165  3.357363  0.112989
  11126.973  11126.960  0.500  3.109065  75.9123  3.388926  0.115369
  11141.328  11141.290  0.500  3.098412  75.665  3.414066  0.117506
  11155.817  11155.790  0.500  3.088435  75.4029  3.436351  0.119228
  11170.492  11170.460  0.500  3.078595  75.128  3.457678  0.121122
  11185.319  11185.300  0.500  3.068740  74.8518  3.479088  0.123169
  11200.356  11200.320  0.500  3.058609  74.5842  3.501947  0.125325
  11215.537  11215.500  0.500  3.048112  74.3  3.525416  0.128006
  11230.892  11230.860  0.500  3.036134  73.9861  3.552828  0.130360
  11246.422  11246.390  0.500  3.023277  73.8294  3.591175  0.133143
  11262.111  11262.090  0.500  3.009847  73.4657  3.621803  0.136114
  11277.983  11277.960  0.500  2.996291  73.1483  3.655371  0.138765
  11294.044  11294.010  0.500  2.982194  72.8033  3.689780  0.141459
  11310.247  11310.220  0.500  2.968332  72.5501  3.728275  0.144769
  11326.641  11326.610  0.500  2.954548  72.2624  3.765027  0.148280
  11343.202  11343.170  0.500  2.941557  71.8595  3.792994  0.151397
  11359.912  11359.900  0.500  2.933139  64.7521  3.446732  0.138957
  11376.831  11376.800  0.500  2.916647  69.8966  3.782445  0.154330
  11388.183  11388.160  0.500  2.908148  70.9591  3.872716  0.159265