File: xdidata/Re/Re-L1-RheniumOxide.xdi
# XDI/1.0 BlueSky/1.10.0 BMM/2023-1.0-py310-tiled
# Beamline.name: BMM (06BM) -- Beamline for Materials Measurement (NIST)
# Beamline.xray_source: NSLS-II three-pole wiggler
# Beamline.collimation: paraboloid mirror, 5 nm Rh on 30 nm Pt
# Beamline.focusing: not in use
# Beamline.harmonic_rejection: flat mirror, Pt stripe, pitch = 7.0 mrad relative to beam
# Beamline.software: Bluesky 1.10.0, Ophyd 1.7.0, DataBroker 2.0.0b13, Python 3.10.8, 2023-1.0-py310-tiled
# Detector.I0: 10 cm N2
# Detector.I1: 25 cm N2
# Detector.I2: 25 cm N2
# Element.symbol: Re
# Element.edge: L1
# Element.reference: Re
# Element.reference_material: ReO2
# Facility.name: NSLS-II
# Facility.energy: 3.0
# Facility.current: 400.7
# Facility.mode: top-off
# Facility.GUP: 301027
# Facility.SAF: 310583
# Facility.cycle: 2023-2
# Mono.name: Si(111)
# Mono.d_spacing: 3.13519
# Mono.encoder_resolution: 0.0000050 deg/ct
# Mono.angle_offset: 16.0754 deg
# Mono.scan_mode: pseudo channel cut
# Mono.scan_type: step
# Mono.direction: forward in energy
# Sample.name: ReO2
# Sample.prep: powder on tape
# Sample.x: 109.138 mm
# Sample.y: 153.150 mm
# Sample.SDD_position: 205.000 mm
# Scan.experimenters: Bruce Ravel
# Scan.edge_energy: 12526.7
# Scan.start_time: 2023-05-28T19:51:48
# Scan.end_time: 2023-05-28T19:59:31
# Scan.transient_id: 78966
# Scan.uid: 7d4191fd-b95f-4834-b987-4d8f362ef69e
# Scan.plot_hint: ln(It/Ir)  --  ln($6/$7)
# Column.1: energy eV
# Column.2: requested_energy eV
# Column.3: measurement_time seconds
# Column.4: xmu
# Column.5: I0 nA
# Column.6: It nA
# Column.7: Ir nA
# ///////////
# Welcome to BMM
# -----------
# energy  requested_energy  measurement_time  xmu  I0  It  Ir
  12326.705  12326.700  0.500  3.250028  56.041  96.1769  3.729079
  12356.764  12356.700  0.500  3.229571  55.5826  95.483  3.778687
  12386.698  12386.700  0.500  3.213470  55.3308  95.1366  3.826094
  12416.732  12416.700  0.500  3.194813  54.9127  94.5035  3.872202
  12446.705  12446.700  0.500  3.183797  54.6007  94.0491  3.896272
  12476.716  12476.700  0.500  3.168220  54.2108  93.4662  3.932914
  12498.652  12498.700  0.500  3.156202  53.9419  93.0637  3.963322
  12504.639  12504.700  0.500  3.154437  53.8557  92.9354  3.964848
  12510.639  12510.700  0.500  3.154156  53.7724  92.8016  3.960255
  12516.658  12516.700  0.500  3.156200  53.6955  92.6812  3.947041
  12517.539  12517.600  0.500  3.156745  53.6805  92.6521  3.943648
  12518.440  12518.500  0.500  3.157579  53.6649  92.6349  3.939632
  12519.348  12519.400  0.500  3.158446  53.6523  92.6137  3.935316
  12520.250  12520.300  0.500  3.159607  53.6409  92.593  3.929871
  12521.166  12521.200  0.500  3.161005  53.6223  92.5759  3.923658
  12522.061  12522.100  0.500  3.162407  53.6075  92.5499  3.917058
  12522.956  12523.000  0.500  3.164197  53.5929  92.5266  3.909068
  12523.872  12523.900  0.500  3.166581  53.5796  92.5047  3.898838
  12524.774  12524.800  0.500  3.169547  53.5627  92.4847  3.886450
  12525.683  12525.700  0.500  3.172930  53.5501  92.4493  3.871842
  12526.593  12526.600  0.500  3.177672  53.5327  92.4296  3.852702
  12527.489  12527.500  0.500  3.183557  53.513  92.4089  3.829241
  12528.385  12528.400  0.500  3.190987  53.5035  92.3879  3.800031
  12529.302  12529.300  0.500  3.199911  53.4845  92.3574  3.765025
  12530.184  12530.200  0.500  3.210670  53.4734  92.3326  3.723737
  12531.087  12531.100  0.500  3.222174  53.4585  92.3085  3.680180
  12531.977  12532.000  0.500  3.234607  53.4437  92.2828  3.633699
  12532.888  12532.900  0.500  3.247458  53.4259  92.2592  3.586381
  12533.798  12533.800  0.500  3.259758  53.4126  92.2383  3.541737
  12534.716  12534.700  0.500  3.271450  53.3926  92.2179  3.499792
  12535.613  12535.600  0.500  3.280874  53.3766  92.1828  3.465646
  12536.503  12536.500  0.500  3.290040  53.3616  92.1589  3.433134
  12537.400  12537.400  0.500  3.299893  53.3355  92.1198  3.398034
  12538.318  12538.300  0.500  3.313043  53.2951  92.0487  3.351053
  12539.202  12539.200  0.500  3.328844  53.1238  91.7572  3.288074
  12540.100  12540.100  0.500  3.346838  52.8561  91.3066  3.213579
  12540.998  12541.000  0.500  3.367291  52.985  91.5316  3.156279
  12541.882  12541.900  0.500  3.389217  53.2149  91.9099  3.100588
  12542.794  12542.800  0.500  3.411218  53.2779  92.0389  3.037374
  12543.679  12543.700  0.500  3.433249  53.2716  92.035  2.971065
  12544.598  12544.600  0.500  3.454323  53.2585  91.9964  2.907888
  12545.496  12545.500  0.500  3.474288  53.2383  91.9748  2.849737
  12546.395  12546.400  0.500  3.492265  53.2251  91.9546  2.798352
  12547.300  12547.300  0.500  3.507550  53.3969  92.2578  2.764990
  12548.199  12548.200  0.500  3.521189  53.3902  92.2429  2.727093
  12549.085  12549.100  0.500  3.533680  53.3753  92.2246  2.692708
  12550.004  12550.000  0.500  3.544421  53.358  92.1909  2.662963
  12550.890  12550.900  0.500  3.553244  53.3467  92.1766  2.639165
  12551.707  12551.700  0.500  3.559418  53.3339  92.1526  2.622239
  12554.722  12554.710  0.500  3.563157  53.2866  92.0826  2.610469
  12557.938  12557.900  0.500  3.550240  53.2414  92.0168  2.642514
  12561.265  12561.260  0.500  3.546164  53.1976  91.9384  2.651046
  12564.801  12564.780  0.500  3.539702  53.1489  91.8709  2.666274
  12568.497  12568.480  0.500  3.514148  53.0986  91.7921  2.732942
  12572.340  12572.350  0.500  3.484888  53.0415  91.7169  2.811780
  12576.427  12576.400  0.500  3.465732  52.9639  91.5788  2.861847
  12580.606  12580.610  0.500  3.456484  52.9272  91.5356  2.887075
  12585.008  12584.990  0.500  3.451185  52.8728  91.4466  2.899592
  12589.559  12589.550  0.500  3.446973  52.806  91.3436  2.908552
  12594.286  12594.280  0.500  3.444544  52.7434  91.2494  2.912618
  12599.197  12599.180  0.500  3.443875  52.6761  91.1428  2.911163
  12604.243  12604.250  0.500  3.448086  52.6126  91.0359  2.895530
  12609.487  12609.490  0.500  3.455417  52.5396  90.9317  2.871091
  12614.909  12614.910  0.500  3.463347  52.4671  90.8269  2.845129
  12620.523  12620.490  0.500  3.464596  52.3408  90.6214  2.835148
  12626.247  12626.250  0.500  3.458970  52.313  90.5762  2.849721
  12632.198  12632.180  0.500  3.451216  52.2375  90.4685  2.868490
  12638.308  12638.280  0.500  3.446217  52.1648  90.3487  2.879047
  12644.557  12644.550  0.500  3.441600  52.0834  90.2209  2.888279
  12651.007  12650.990  0.500  3.433157  51.9971  90.0907  2.908566
  12657.604  12657.600  0.500  3.424375  51.9103  89.9632  2.930068
  12664.417  12664.390  0.500  3.416565  51.8182  89.8123  2.948089
  12671.377  12671.350  0.500  3.409674  51.7278  89.6846  2.964253
  12678.479  12678.470  0.500  3.405646  51.6256  89.5282  2.971027
  12685.771  12685.770  0.500  3.403923  51.5422  89.3986  2.971842
  12693.261  12693.250  0.500  3.403086  51.4471  89.2551  2.969556
  12700.908  12700.890  0.500  3.403341  51.3461  89.1  2.963642
  12708.705  12708.700  0.500  3.400997  51.2416  88.9453  2.965436
  12716.688  12716.690  0.500  3.394590  51.142  88.7876  2.979208
  12724.864  12724.850  0.500  3.388018  51.034  88.609  2.992818
  12733.193  12733.170  0.500  3.383011  50.9054  88.4135  3.001204
  12741.667  12741.670  0.500  3.376667  50.8275  88.294  3.016222
  12750.351  12750.350  0.500  3.368237  50.7236  88.137  3.036348
  12759.211  12759.190  0.500  3.360448  50.6127  87.9626  3.054035
  12768.189  12768.200  0.500  3.353084  50.4984  87.7866  3.070452
  12777.408  12777.390  0.500  3.347247  50.3842  87.6078  3.082136
  12786.769  12786.750  0.500  3.342520  50.2595  87.4091  3.089717
  12796.315  12796.270  0.500  3.338206  50.1422  87.2271  3.096615
  12805.990  12805.970  0.500  3.333825  50.0162  87.0359  3.103394
  12815.880  12815.850  0.500  3.328188  49.896  86.8437  3.114046
  12825.922  12825.890  0.500  3.321463  49.7327  86.5854  3.125731
  12836.124  12836.100  0.500  3.314234  49.6358  86.445  3.143305
  12846.508  12846.490  0.500  3.309485  49.4925  86.2198  3.150039
  12857.052  12857.050  0.500  3.303094  49.3828  86.0512  3.164038
  12867.802  12867.780  0.500  3.295891  49.2409  85.83  3.178715
  12878.694  12878.680  0.500  3.288740  49.0746  85.5608  3.191490
  12889.756  12889.750  0.500  3.281915  48.9653  85.4024  3.207395
  12901.004  12900.990  0.500  3.274238  48.8009  85.1291  3.221770
  12912.411  12912.410  0.500  3.267173  48.8403  85.2205  3.248097
  12924.027  12923.990  0.500  3.260071  48.7278  85.0548  3.264884
  12935.774  12935.750  0.500  3.253365  48.5799  84.8217  3.277845
  12947.703  12947.680  0.500  3.245318  48.4247  84.5709  3.294561
  12959.808  12959.780  0.500  3.237711  48.274  84.3366  3.310516
  12972.084  12972.050  0.500  3.230558  48.1458  84.1452  3.326717
  12984.529  12984.490  0.500  3.224715  47.992  83.8989  3.336417
  12997.169  12997.110  0.500  3.218358  47.8396  83.6631  3.348258
  13009.937  13009.890  0.500  3.210740  47.6806  83.4101  3.363661
  13022.885  13022.850  0.500  3.203066  47.5206  83.1502  3.379012
  13036.038  13035.980  0.500  3.194210  47.3595  82.9072  3.399105
  13049.336  13049.280  0.500  3.185350  47.1113  82.4924  3.412193
  13062.789  13062.750  0.500  3.176490  47.0282  82.3792  3.437836
  13076.433  13076.400  0.500  3.169261  46.8372  82.075  3.449994
  13090.256  13090.210  0.500  3.161840  46.6815  81.8212  3.464942
  13104.221  13104.200  0.500  3.153884  46.4964  81.5257  3.480007
  13118.404  13118.360  0.500  3.145213  46.2825  81.1757  3.495245
  13132.746  13132.690  0.500  3.137547  46.1539  80.9738  3.513382
  13147.232  13147.190  0.500  3.129359  45.9939  80.7276  3.531496
  13161.895  13161.860  0.500  3.121027  45.8059  80.4233  3.547623
  13176.765  13176.700  0.500  3.112536  45.6112  80.1117  3.564008
  13191.768  13191.720  0.500  3.103753  45.4399  79.8302  3.582817
  13206.942  13206.900  0.500  3.095104  45.2457  79.5293  3.600315
  13222.312  13222.260  0.500  3.086162  45.039  79.1879  3.617060
  13237.833  13237.790  0.500  3.078057  44.8524  78.89  3.632778
  13253.529  13253.490  0.500  3.069431  44.6215  78.5138  3.646774
  13269.393  13269.360  0.500  3.060418  44.2576  77.8987  3.650966
  13285.457  13285.410  0.500  3.051101  43.6161  76.8074  3.633513
  13301.661  13301.620  0.500  3.041595  43.3872  76.4279  3.650096
  13318.045  13318.010  0.500  3.033064  43.2669  76.2478  3.672692
  13334.624  13334.570  0.500  3.023753  43.0329  75.8688  3.688622
  13351.347  13351.300  0.500  3.015013  42.9113  75.6779  3.711639
  13368.244  13368.200  0.500  3.006025  42.702  75.3339  3.728122
  13379.604  13379.560  0.500  2.999715  42.5761  75.1345  3.741791