File: xdidata/Data/Nd/Nd-L1-Nd-hydroxide.xdi
# XDI/1.0 BlueSky/1.10.0 BMM/2023-1.0-py310-tiled
# Beamline.name: BMM (06BM) -- Beamline for Materials Measurement (NIST)
# Beamline.xray_source: NSLS-II three-pole wiggler
# Beamline.collimation: paraboloid mirror, 5 nm Rh on 30 nm Pt
# Beamline.focusing: not in use
# Beamline.harmonic_rejection: flat mirror, Si stripe, pitch = 7.0 mrad relative to beam
# Beamline.software: Bluesky 1.10.0, Ophyd 1.7.0, DataBroker 2.0.0b13, Python 3.10.8, 2023-1.0-py310-tiled
# Detector.I0: 10 cm N2
# Detector.I1: 25 cm N2
# Detector.I2: 25 cm N2
# Element.symbol: Nd
# Element.edge: L1
# Element.reference: Nd
# Element.reference_material: Nd2O3
# Facility.name: NSLS-II
# Facility.energy: 3.0
# Facility.current: 399.0
# Facility.mode: top-off
# Facility.GUP: 123456
# Facility.SAF: 301027
# Facility.cycle: 2023-2
# Mono.name: Si(111)
# Mono.d_spacing: 3.13519
# Mono.encoder_resolution: 0.0000050 deg/ct
# Mono.angle_offset: 16.0754 deg
# Mono.scan_mode: pseudo channel cut
# Mono.scan_type: step
# Mono.direction: forward in energy
# Sample.name: Nd(OH)3
# Sample.prep: Powder in PEG pellet
# Sample.x: 149.848 mm
# Sample.y: 114.690 mm
# Sample.SDD_position: 205.000 mm
# Scan.experimenters: Bruce Ravel
# Scan.edge_energy: 7126.0
# Scan.start_time: 2023-05-08T20:30:51
# Scan.end_time: 2023-05-08T20:36:40
# Scan.transient_id: 75586
# Scan.uid: f69ae175-dc34-4b99-9302-0dbb4bdee89c
# Scan.plot_hint: ln(I0/It)  --  ln($5/$6)
# Column.1: energy eV
# Column.2: requested_energy eV
# Column.3: measurement_time seconds
# Column.4: xmu
# Column.5: I0 nA
# Column.6: It nA
# Column.7: Ir nA
# ///////////
# sample courtesy Martin Stennett, University of Sheffield
# -----------
# energy  requested_energy  measurement_time  xmu  I0  It  Ir
  6926.012  6926.000  0.500  2.485233  149.887  12.4865  2.423325
  6946.019  6946.000  0.500  2.463332  149.929  12.7666  2.507246
  6966.016  6966.000  0.500  2.444312  150.586  13.0687  2.595260
  6986.030  6986.000  0.500  2.416673  150.599  13.4362  2.706040
  7006.011  7006.000  0.500  2.396635  150.572  13.7056  2.791009
  7026.013  7026.000  0.500  2.375167  150.528  13.999  2.884278
  7046.010  7046.000  0.500  2.353361  150.435  14.2988  2.980846
  7066.017  7066.000  0.500  2.333870  150.274  14.5646  3.069120
  7086.002  7086.000  0.500  2.311467  150.024  14.8698  3.171521
  7097.995  7098.000  0.500  2.299324  149.983  15.0473  3.231440
  7101.995  7102.000  0.500  2.295787  149.927  15.0949  3.248467
  7105.995  7106.000  0.500  2.291981  149.88  15.1477  3.265768
  7110.003  7110.000  0.500  2.288311  149.801  15.1955  3.282795
  7113.998  7114.000  0.500  2.285355  149.508  15.2107  3.292878
  7116.483  7116.500  0.500  2.283794  149.446  15.2281  3.300144
  7117.484  7117.500  0.500  2.283374  149.418  15.2316  3.301745
  7118.487  7118.500  0.500  2.282871  149.36  15.2334  3.304271
  7119.484  7119.500  0.500  2.282295  149.3  15.236  3.305502
  7120.481  7120.500  0.500  2.281934  149.236  15.235  3.306641
  7121.490  7121.500  0.500  2.281668  149.227  15.2382  3.307534
  7122.485  7122.500  0.500  2.281698  149.163  15.2311  3.307202
  7123.486  7123.500  0.500  2.281854  149.103  15.2227  3.305677
  7124.486  7124.500  0.500  2.282091  149.066  15.2153  3.305105
  7125.489  7125.500  0.500  2.282512  148.986  15.2007  3.302568
  7126.497  7126.500  0.500  2.284047  148.934  15.1721  3.295967
  7127.498  7127.500  0.500  2.285732  148.874  15.1405  3.288264
  7128.489  7128.500  0.500  2.288280  148.785  15.0929  3.275695
  7129.496  7129.500  0.500  2.293335  148.717  15.0099  3.253681
  7130.496  7130.500  0.500  2.300632  148.64  14.8931  3.222383
  7131.496  7131.500  0.500  2.307888  148.552  14.7766  3.189465
  7132.495  7132.500  0.500  2.313709  148.5  14.6858  3.165235
  7133.492  7133.500  0.500  2.318863  148.511  14.6113  3.144497
  7134.500  7134.500  0.500  2.324996  148.452  14.5162  3.119888
  7135.501  7135.500  0.500  2.333881  148.489  14.3914  3.085434
  7136.495  7136.500  0.500  2.346315  148.487  14.2133  3.036259
  7137.495  7137.500  0.500  2.362044  148.471  13.9901  2.975672
  7138.502  7138.500  0.500  2.382160  148.473  13.7116  2.898590
  7139.498  7139.500  0.500  2.406347  148.441  13.3811  2.808869
  7140.497  7140.500  0.500  2.433152  148.426  13.0258  2.712097
  7141.503  7141.500  0.500  2.458708  148.433  12.6978  2.622723
  7142.504  7142.500  0.500  2.481023  148.424  12.4168  2.546779
  7143.499  7143.500  0.500  2.496524  148.425  12.2259  2.496107
  7144.499  7144.500  0.500  2.503975  148.399  12.133  2.471416
  7145.506  7145.500  0.500  2.502832  148.402  12.1472  2.475900
  7146.502  7146.500  0.500  2.495187  148.399  12.2401  2.500798
  7147.495  7147.500  0.500  2.484170  148.395  12.3754  2.538645
  7148.498  7148.500  0.500  2.471064  148.384  12.5377  2.583020
  7149.499  7149.500  0.500  2.458720  148.385  12.6935  2.625897
  7150.495  7150.500  0.500  2.447809  148.394  12.8335  2.664479
  7151.993  7151.990  0.500  2.435764  148.373  12.9872  2.707588
  7154.020  7154.010  0.500  2.426086  148.361  13.1124  2.743745
  7156.135  7156.120  0.500  2.417844  148.321  13.2174  2.773346
  7158.306  7158.300  0.500  2.407812  148.326  13.3511  2.811964
  7160.576  7160.560  0.500  2.395036  148.276  13.5182  2.859452
  7162.902  7162.890  0.500  2.383131  148.229  13.6758  2.905436
  7165.303  7165.300  0.500  2.373764  148.177  13.7997  2.942149
  7167.791  7167.780  0.500  2.368296  148.104  13.8685  2.962506
  7170.344  7170.340  0.500  2.366078  148.042  13.8935  2.972754
  7172.987  7172.980  0.500  2.368099  148.016  13.8629  2.966409
  7175.716  7175.700  0.500  2.375593  147.959  13.7541  2.938477
  7178.503  7178.490  0.500  2.383019  147.932  13.6499  2.910123
  7181.361  7181.350  0.500  2.387052  147.899  13.592  2.895698
  7184.297  7184.290  0.500  2.389232  147.852  13.558  2.888868
  7187.320  7187.310  0.500  2.388598  147.811  13.5629  2.891650
  7190.423  7190.410  0.500  2.387003  147.729  13.577  2.898258
  7193.588  7193.580  0.500  2.384351  147.48  13.5901  2.905834
  7196.840  7196.830  0.500  2.379746  147.558  13.6601  2.926956
  7200.156  7200.150  0.500  2.372464  147.495  13.754  2.956515
  7203.559  7203.550  0.500  2.362176  147.415  13.8887  2.997567
  7207.044  7207.030  0.500  2.350541  147.319  14.0421  3.044303
  7210.595  7210.580  0.500  2.341078  147.24  14.1681  3.083429
  7214.221  7214.210  0.500  2.334393  147.172  14.2564  3.110991
  7217.925  7217.910  0.500  2.329522  147.075  14.3166  3.132020
  7221.704  7221.690  0.500  2.326989  146.976  14.3432  3.141799
  7225.565  7225.550  0.500  2.325980  146.836  14.3441  3.145925
  7229.487  7229.480  0.500  2.325271  146.968  14.3671  3.154681
  7233.501  7233.490  0.500  2.324012  146.837  14.3724  3.159271
  7237.593  7237.580  0.500  2.319869  146.789  14.4274  3.178671
  7241.752  7241.740  0.500  2.314752  146.729  14.4955  3.201366
  7245.996  7245.980  0.500  2.309731  146.014  14.4974  3.208777
  7250.304  7250.290  0.500  2.305999  146.517  14.6018  3.239703
  7254.695  7254.680  0.500  2.302698  144.125  14.4109  3.203799
  7259.156  7259.150  0.500  2.298112  146.375  14.7031  3.275827
  7263.699  7263.690  0.500  2.293365  139.22  14.051  3.140333
  7268.327  7268.310  0.500  2.288616  146.767  14.8832  3.333274
  7273.015  7273.000  0.500  2.281922  147.05  15.012  3.372387
  7277.783  7277.770  0.500  2.275224  147.288  15.1373  3.411971
  7282.639  7282.620  0.500  2.268380  147.187  15.2309  3.443969
  7287.560  7287.550  0.500  2.261832  146.94  15.3052  3.471176
  7292.561  7292.550  0.500  2.257364  146.931  15.3728  3.494745
  7297.643  7297.620  0.500  2.253499  146.793  15.4179  3.512069
  7302.780  7302.770  0.500  2.249841  146.887  15.4843  3.535982
  7308.012  7308.000  0.500  2.245972  146.723  15.5269  3.553874
  7313.319  7313.310  0.500  2.241066  146.639  15.5943  3.578194
  7318.704  7318.690  0.500  2.235350  146.533  15.6724  3.606728
  7324.164  7324.150  0.500  2.229066  146.414  15.7584  3.637418
  7329.696  7329.680  0.500  2.223057  146.344  15.8458  3.668385
  7335.302  7335.290  0.500  2.217582  146.261  15.9238  3.698483
  7340.984  7340.970  0.500  2.211666  145.986  15.9881  3.724164
  7346.754  7346.740  0.500  2.206251  145.98  16.0743  3.755259
  7352.577  7352.570  0.500  2.200938  145.874  16.1481  3.784493
  7358.502  7358.490  0.500  2.194340  145.746  16.2407  3.818504
  7364.485  7364.480  0.500  2.187251  145.62  16.3421  3.854455
  7370.563  7370.550  0.500  2.180190  145.507  16.4452  3.892557
  7376.701  7376.690  0.500  2.173402  145.365  16.541  3.928096
  7382.919  7382.910  0.500  2.167638  145.215  16.6196  3.959384
  7389.219  7389.200  0.500  2.161959  145.076  16.6982  3.990314
  7395.575  7395.570  0.500  2.156555  144.953  16.7743  4.019812
  7402.029  7402.020  0.500  2.151202  144.789  16.8454  4.048789
  7408.559  7408.550  0.500  2.145453  144.567  16.9165  4.078875
  7415.163  7415.150  0.500  2.139118  144.523  17.0189  4.117790
  7421.835  7421.820  0.500  2.132032  144.338  17.1179  4.156349
  7428.582  7428.570  0.500  2.124423  144.2  17.2322  4.198740
  7435.411  7435.400  0.500  2.117389  143.975  17.3268  4.236873
  7442.321  7442.310  0.500  2.110879  143.725  17.4097  4.272383
  7449.306  7449.290  0.500  2.104268  143.669  17.5183  4.312875
  7456.364  7456.350  0.500  2.097948  143.487  17.607  4.349740
  7463.494  7463.480  0.500  2.090835  143.265  17.7052  4.388779
  7470.720  7470.690  0.500  2.083910  143.237  17.8249  4.434792
  7477.998  7477.980  0.500  2.076590  142.96  17.921  4.474076
  7485.361  7485.340  0.500  2.069140  142.715  18.0241  4.517580
  7492.795  7492.780  0.500  2.062032  142.51  18.1266  4.558846
  7500.310  7500.290  0.500  2.055573  142.302  18.2174  4.598062
  7507.900  7507.880  0.500  2.048976  142.098  18.3118  4.638859
  7515.569  7515.550  0.500  2.041869  141.815  18.4056  4.679178
  7523.312  7523.290  0.500  2.034654  141.613  18.5125  4.723151
  7531.127  7531.110  0.500  2.027496  141.329  18.608  4.766197
  7539.038  7539.010  0.500  2.020055  141.083  18.7144  4.810938
  7546.987  7546.980  0.500  2.012539  140.791  18.8166  4.855662
  7555.062  7555.030  0.500  2.004815  140.566  18.9322  4.905572
  7563.170  7563.150  0.500  1.997344  140.271  19.0341  4.950037
  7571.371  7571.350  0.500  1.990022  140.014  19.1388  4.995712
  7579.650  7579.630  0.500  1.982760  139.71  19.2365  5.040355
  7587.975  7587.980  0.500  1.975017  139.371  19.339  5.087520
  7596.429  7596.410  0.500  1.967490  138.947  19.4257  5.131302
  7604.929  7604.910  0.500  1.959891  138.172  19.4647  5.161349
  7613.475  7613.490  0.500  1.952089  137.813  19.5663  5.209047
  7622.171  7622.150  0.500  1.944195  137.823  19.7228  5.271229
  7630.925  7630.890  0.500  1.936428  137.699  19.8587  5.328786
  7639.723  7639.700  0.500  1.928655  137.439  19.9758  5.381635
  7648.591  7648.580  0.500  1.920857  137.091  20.0813  5.431145
  7657.568  7657.540  0.500  1.913161  136.785  20.1912  5.483714
  7666.598  7666.580  0.500  1.905559  136.409  20.2893  5.532070
  7671.147  7671.130  0.500  1.901621  136.234  20.3434  5.558480