File: xdidata/Data/Nd/Nd-L3-Nd2Zr2O7.xdi
# XDI/1.0 BlueSky/1.10.0 BMM/2023-1.0-py310-tiled
# Beamline.name: BMM (06BM) -- Beamline for Materials Measurement (NIST)
# Beamline.xray_source: NSLS-II three-pole wiggler
# Beamline.collimation: paraboloid mirror, 5 nm Rh on 30 nm Pt
# Beamline.focusing: not in use
# Beamline.harmonic_rejection: flat mirror, Si stripe, pitch = 7.0 mrad relative to beam
# Beamline.software: Bluesky 1.10.0, Ophyd 1.7.0, DataBroker 2.0.0b13, Python 3.10.8, 2023-1.0-py310-tiled
# Detector.I0: 10 cm N2
# Detector.I1: 25 cm N2
# Detector.I2: 25 cm N2
# Element.symbol: Nd
# Element.edge: L3
# Element.reference: Nd
# Element.reference_material: Nd2O3
# Facility.name: NSLS-II
# Facility.energy: 3.0
# Facility.current: 399.1
# Facility.mode: top-off
# Facility.GUP: 123456
# Facility.SAF: 301027
# Facility.cycle: 2023-2
# Mono.name: Si(111)
# Mono.d_spacing: 3.13519
# Mono.encoder_resolution: 0.0000050 deg/ct
# Mono.angle_offset: 16.0754 deg
# Mono.scan_mode: pseudo channel cut
# Mono.scan_type: step
# Mono.direction: forward in energy
# Sample.name: Nd2Zr2O7
# Sample.prep: Powder in PEG pellet
# Sample.x: 149.848 mm
# Sample.y: 114.690 mm
# Sample.SDD_position: 205.000 mm
# Scan.experimenters: Bruce Ravel
# Scan.edge_energy: 6207.9
# Scan.start_time: 2023-05-08T16:43:18
# Scan.end_time: 2023-05-08T16:48:58
# Scan.transient_id: 75412
# Scan.uid: 2f0c6457-a91d-430f-9777-17c49abb5bb3
# Scan.plot_hint: ln(I0/It)  --  ln($5/$6)
# Column.1: energy eV
# Column.2: requested_energy eV
# Column.3: measurement_time seconds
# Column.4: xmu
# Column.5: I0 nA
# Column.6: It nA
# Column.7: Ir nA
# ///////////
# sample courtesy Martin Stennett, University of Sheffield
# -----------
# energy  requested_energy  measurement_time  xmu  I0  It  Ir
  6007.909  6007.900  0.500  2.719971  147.679  9.728603  1.353988
  6027.916  6027.900  0.500  2.687516  148.608  10.1127  1.434283
  6047.914  6047.900  0.500  2.655809  149.085  10.4721  1.514130
  6067.916  6067.900  0.500  2.623960  149.031  10.807  1.591902
  6087.909  6087.900  0.500  2.593153  149.45  11.1765  1.676370
  6107.910  6107.900  0.500  2.562263  149.935  11.5645  1.766484
  6128.206  6127.900  0.500  2.531708  150.302  11.9525  1.858706
  6147.885  6147.900  0.500  2.502243  150.703  12.3427  1.953713
  6167.890  6167.900  0.500  2.473862  150.885  12.7134  2.045840
  6179.894  6179.900  0.500  2.458190  151.205  12.9416  2.100888
  6183.891  6183.900  0.500  2.453341  151.269  13.01  2.117672
  6187.890  6187.900  0.500  2.449209  151.296  13.0662  2.130605
  6191.890  6191.900  0.500  2.446083  151.348  13.1116  2.140924
  6195.893  6195.900  0.500  2.445477  151.384  13.1227  2.140978
  6198.384  6198.400  0.500  2.447175  151.407  13.1024  2.133417
  6199.387  6199.400  0.500  2.448732  151.397  13.0812  2.127171
  6200.384  6200.400  0.500  2.450643  151.397  13.0562  2.118773
  6201.388  6201.400  0.500  2.454440  151.406  13.0075  2.104499
  6202.390  6202.400  0.500  2.458942  151.405  12.9489  2.086751
  6203.390  6203.400  0.500  2.466340  151.412  12.8541  2.058727
  6204.390  6204.400  0.500  2.476946  151.417  12.719  2.019377
  6205.391  6205.400  0.500  2.490314  151.427  12.5508  1.972786
  6206.389  6206.400  0.500  2.507101  151.441  12.3431  1.916819
  6207.391  6207.400  0.500  2.530007  151.441  12.0636  1.844733
  6208.396  6208.400  0.500  2.562845  151.442  11.6739  1.750186
  6209.394  6209.400  0.500  2.619416  151.454  11.0327  1.602916
  6210.397  6210.400  0.500  2.720429  151.459  9.973068  1.367236
  6211.396  6211.400  0.500  2.854570  151.466  8.721515  1.082281
  6212.394  6212.400  0.500  2.991166  151.472  7.608256  0.802255
  6213.397  6213.400  0.500  3.105449  151.478  6.786869  0.589403
  6214.394  6214.400  0.500  3.162283  151.471  6.411633  0.496165
  6215.398  6215.400  0.500  3.158268  151.465  6.437171  0.510953
  6216.398  6216.400  0.500  3.100644  151.471  6.819267  0.607123
  6217.398  6217.400  0.500  3.014558  151.481  7.432788  0.746743
  6218.402  6218.400  0.500  2.924293  151.48  8.134878  0.902029
  6219.402  6219.400  0.500  2.847456  151.506  8.786064  1.045648
  6220.396  6220.400  0.500  2.786593  151.508  9.337597  1.168540
  6221.400  6221.400  0.500  2.739944  151.512  9.783732  1.267540
  6222.400  6222.400  0.500  2.709450  151.509  10.0865  1.332536
  6223.401  6223.400  0.500  2.689792  151.518  10.2873  1.371796
  6224.406  6224.400  0.500  2.677026  151.511  10.419  1.394122
  6225.405  6225.400  0.500  2.667350  151.528  10.5215  1.408858
  6226.400  6226.400  0.500  2.661060  151.53  10.588  1.420712
  6227.404  6227.400  0.500  2.658987  151.532  10.6102  1.428755
  6228.401  6228.400  0.500  2.660356  151.527  10.5953  1.434956
  6229.399  6229.400  0.500  2.663850  151.524  10.5581  1.439155
  6230.402  6230.400  0.500  2.668541  151.527  10.5089  1.439062
  6231.403  6231.400  0.500  2.673492  151.533  10.4574  1.435225
  6232.401  6232.400  0.500  2.676899  151.523  10.4212  1.429816
  6233.897  6233.890  0.500  2.678759  151.532  10.4024  1.418345
  6235.916  6235.910  0.500  2.674921  151.529  10.4422  1.402572
  6238.026  6238.020  0.500  2.672494  151.551  10.4691  1.383241
  6240.213  6240.200  0.500  2.678530  151.576  10.4078  1.354441
  6242.468  6242.460  0.500  2.691072  151.588  10.2789  1.319199
  6244.798  6244.790  0.500  2.704086  151.59  10.1462  1.291158
  6247.206  6247.200  0.500  2.712528  151.595  10.0612  1.280069
  6249.689  6249.680  0.500  2.712540  151.617  10.0625  1.290371
  6252.249  6252.240  0.500  2.700867  151.618  10.1807  1.321511
  6254.889  6254.880  0.500  2.681146  151.607  10.3827  1.368598
  6257.614  6257.600  0.500  2.661274  151.608  10.5912  1.419118
  6260.398  6260.390  0.500  2.646070  151.616  10.754  1.460051
  6263.260  6263.250  0.500  2.637902  151.616  10.8423  1.482998
  6266.205  6266.190  0.500  2.635050  151.649  10.8755  1.491817
  6269.221  6269.210  0.500  2.635132  151.675  10.8765  1.494954
  6272.322  6272.310  0.500  2.634164  151.676  10.8872  1.497555
  6275.491  6275.480  0.500  2.632947  151.684  10.901  1.496437
  6278.740  6278.730  0.500  2.631800  151.708  10.9152  1.493527
  6282.058  6282.050  0.500  2.631025  151.713  10.924  1.489120
  6285.461  6285.450  0.500  2.627870  151.694  10.9572  1.485562
  6288.945  6288.930  0.500  2.621353  151.679  11.0277  1.490907
  6292.493  6292.480  0.500  2.614510  151.683  11.1038  1.504974
  6296.122  6296.110  0.500  2.609624  151.702  11.1596  1.519423
  6299.820  6299.810  0.500  2.606243  151.715  11.1983  1.534010
  6303.601  6303.590  0.500  2.603856  151.674  11.222  1.549468
  6307.460  6307.450  0.500  2.599560  151.656  11.269  1.568660
  6311.392  6311.380  0.500  2.592679  151.642  11.3458  1.591017
  6315.400  6315.390  0.500  2.585440  151.651  11.4289  1.611592
  6319.492  6319.480  0.500  2.578900  151.647  11.5035  1.625663
  6323.650  6323.640  0.500  2.569965  151.597  11.603  1.642793
  6327.891  6327.880  0.500  2.563913  151.585  11.6725  1.656244
  6332.198  6332.190  0.500  2.559333  152.266  11.7787  1.675183
  6336.591  6336.580  0.500  2.555696  152.225  11.8185  1.685372
  6341.061  6341.050  0.500  2.550367  152.218  11.8811  1.697942
  6345.597  6345.590  0.500  2.544553  152.191  11.9482  1.710428
  6350.222  6350.210  0.500  2.539276  152.164  12.0093  1.720452
  6354.915  6354.900  0.500  2.535294  152.123  12.054  1.728054
  6359.676  6359.670  0.500  2.529236  152.094  12.1249  1.744708
  6364.527  6364.520  0.500  2.520534  152.071  12.2291  1.769494
  6369.460  6369.450  0.500  2.513322  152.06  12.3167  1.794461
  6374.462  6374.450  0.500  2.505937  152.008  12.4038  1.820391
  6379.528  6379.520  0.500  2.497632  151.974  12.5044  1.846860
  6384.677  6384.670  0.500  2.491038  151.916  12.5823  1.866066
  6389.906  6389.900  0.500  2.485326  151.859  12.6496  1.883109
  6395.218  6395.210  0.500  2.479489  151.812  12.7197  1.899181
  6400.597  6400.590  0.500  2.473334  151.749  12.793  1.915822
  6406.057  6406.050  0.500  2.465585  151.667  12.8855  1.936997
  6411.585  6411.580  0.500  2.457602  151.62  12.9848  1.960993
  6417.192  6417.190  0.500  2.450754  151.55  13.0679  1.981913
  6422.875  6422.870  0.500  2.442513  151.441  13.1666  2.005474
  6428.646  6428.640  0.500  2.434121  151.321  13.267  2.029124
  6434.476  6434.470  0.500  2.425993  151.164  13.3614  2.052404
  6440.397  6440.390  0.500  2.418521  151.101  13.456  2.074283
  6446.388  6446.380  0.500  2.411957  151.019  13.5373  2.094351
  6452.460  6452.450  0.500  2.405106  150.861  13.6161  2.116914
  6458.596  6458.590  0.500  2.397882  148.238  13.4763  2.107153
  6464.817  6464.810  0.500  2.390040  148.101  13.5699  2.135926
  6471.104  6471.100  0.500  2.381158  150.464  13.9094  2.202635
  6477.475  6477.470  0.500  2.372813  150.273  14.0082  2.229555
  6483.927  6483.920  0.500  2.364367  150.182  14.1184  2.256715
  6490.465  6490.450  0.500  2.356633  150.051  14.2156  2.281110
  6497.061  6497.050  0.500  2.348767  149.907  14.3142  2.306651
  6503.734  6503.720  0.500  2.340450  149.761  14.4196  2.333620
  6510.476  6510.470  0.500  2.332321  149.582  14.52  2.363644
  6517.315  6517.300  0.500  2.323146  149.408  14.6367  2.396043
  6524.238  6524.210  0.500  2.313930  149.225  14.7541  2.428451
  6531.202  6531.190  0.500  2.305232  149.022  14.8628  2.458949
  6538.265  6538.250  0.500  2.296276  148.789  14.9731  2.490134
  6545.393  6545.380  0.500  2.287968  148.57  15.0757  2.519207
  6552.610  6552.590  0.500  2.279201  148.304  15.1813  2.549708
  6559.897  6559.880  0.500  2.270476  148.072  15.2903  2.581631
  6567.242  6567.240  0.500  2.261237  147.853  15.4094  2.617668
  6574.705  6574.680  0.500  2.251940  147.656  15.5327  2.655702
  6582.187  6582.190  0.500  2.243204  147.419  15.6438  2.690601
  6589.766  6589.780  0.500  2.233540  147.18  15.7701  2.727102
  6597.458  6597.450  0.500  2.224595  146.963  15.8884  2.762773
  6605.196  6605.190  0.500  2.215013  146.683  16.0108  2.799723
  6613.025  6613.010  0.500  2.205909  146.468  16.1335  2.835972
  6620.921  6620.910  0.500  2.196538  146.207  16.2564  2.873222
  6628.895  6628.880  0.500  2.187347  145.942  16.3768  2.911588
  6636.918  6636.930  0.500  2.177242  145.777  16.5244  2.955674
  6645.079  6645.050  0.500  2.167235  145.542  16.6637  3.000087
  6653.269  6653.250  0.500  2.157214  145.316  16.8053  3.043810
  6661.517  6661.530  0.500  2.147427  145.08  16.9431  3.086125
  6669.862  6669.880  0.500  2.137462  144.812  17.0811  3.130513
  6678.313  6678.310  0.500  2.127753  144.559  17.2176  3.175233
  6686.794  6686.810  0.500  2.118428  144.331  17.3515  3.219766
  6695.396  6695.390  0.500  2.109188  144.048  17.4783  3.262751
  6699.688  6699.710  0.500  2.104158  143.879  17.5458  3.284355