File: xdidata/Data/Pr/Pr-L3-Pr2Ti2O7.xdi
# XDI/1.0 BlueSky/1.10.0 BMM/2023-1.0-py310-tiled
# Beamline.name: BMM (06BM) -- Beamline for Materials Measurement (NIST)
# Beamline.xray_source: NSLS-II three-pole wiggler
# Beamline.collimation: paraboloid mirror, 5 nm Rh on 30 nm Pt
# Beamline.focusing: not in use
# Beamline.harmonic_rejection: flat mirror, Si stripe, pitch = 7.0 mrad relative to beam
# Beamline.software: Bluesky 1.10.0, Ophyd 1.7.0, DataBroker 2.0.0b13, Python 3.10.8, 2023-1.0-py310-tiled
# Detector.I0: 10 cm N2
# Detector.I1: 25 cm N2
# Detector.I2: 25 cm N2
# Element.symbol: Pr
# Element.edge: L3
# Element.reference: Pr
# Element.reference_material: Pr6O11
# Facility.name: NSLS-II
# Facility.energy: 3.0
# Facility.current: 400.1
# Facility.mode: top-off
# Facility.GUP: 123456
# Facility.SAF: 301027
# Facility.cycle: 2023-2
# Mono.name: Si(111)
# Mono.d_spacing: 3.13519
# Mono.encoder_resolution: 0.0000050 deg/ct
# Mono.angle_offset: 16.0754 deg
# Mono.scan_mode: pseudo channel cut
# Mono.scan_type: step
# Mono.direction: forward in energy
# Sample.name: Pr2Ti2O7
# Sample.prep: Powder in PEG pellet
# Sample.x: 123.848 mm
# Sample.y: 114.690 mm
# Sample.SDD_position: 205.000 mm
# Scan.experimenters: Bruce Ravel
# Scan.edge_energy: 5964.3
# Scan.start_time: 2023-05-08T16:15:07
# Scan.end_time: 2023-05-08T16:20:41
# Scan.transient_id: 75390
# Scan.uid: ebc21475-d466-4580-a861-84f199330bf0
# Scan.plot_hint: ln(I0/It)  --  ln($5/$6)
# Column.1: energy eV
# Column.2: requested_energy eV
# Column.3: measurement_time seconds
# Column.4: xmu
# Column.5: I0 nA
# Column.6: It nA
# Column.7: Ir nA
# ///////////
# sample courtesy Martin Stennett, University of Sheffield
# -----------
# energy  requested_energy  measurement_time  xmu  I0  It  Ir
  5764.308  5764.300  0.500  2.421637  115.151  10.2227  0.433162
  5784.308  5784.300  0.500  2.390486  115.526  10.5805  0.462496
  5804.309  5804.300  0.500  2.359443  115.848  10.9445  0.493700
  5824.311  5824.300  0.500  2.329263  116.045  11.299  0.525462
  5844.308  5844.300  0.500  2.299943  116.066  11.6373  0.558106
  5864.289  5864.300  0.500  2.270240  115.592  11.9392  0.589745
  5884.289  5884.300  0.500  2.242141  115.373  12.2561  0.624286
  5904.292  5904.300  0.500  2.213863  114.52  12.5145  0.655532
  5924.295  5924.300  0.500  2.185667  114.777  12.9013  0.693364
  5936.295  5936.300  0.500  2.170008  114.493  13.0724  0.710591
  5940.293  5940.300  0.500  2.165210  113.583  13.0309  0.709580
  5944.297  5944.300  0.500  2.161600  107.245  12.3482  0.672077
  5948.291  5948.300  0.500  2.158870  115.254  13.3068  0.721734
  5952.297  5952.300  0.500  2.157858  114.809  13.2687  0.711207
  5954.789  5954.800  0.500  2.159092  114.572  13.225  0.697492
  5955.788  5955.800  0.500  2.160576  114.495  13.1966  0.688730
  5956.789  5956.800  0.500  2.164509  114.413  13.1353  0.676173
  5957.789  5957.800  0.500  2.168971  114.359  13.0706  0.659577
  5958.790  5958.800  0.500  2.176002  114.278  12.9699  0.635096
  5959.788  5959.800  0.500  2.184879  114.203  12.8468  0.604213
  5960.794  5960.800  0.500  2.196609  114.119  12.6877  0.567395
  5961.794  5961.800  0.500  2.212817  114.079  12.4794  0.526493
  5962.790  5962.800  0.500  2.239061  114.013  12.1491  0.471693
  5963.795  5963.800  0.500  2.281787  113.95  11.6345  0.394141
  5964.795  5964.800  0.500  2.354838  113.859  10.8062  0.289678
  5965.794  5965.800  0.500  2.449387  113.846  9.830189  0.188621
  5966.799  5966.800  0.500  2.537290  113.783  8.997992  0.115101
  5967.797  5967.800  0.500  2.592682  113.71  8.507677  0.075205
  5968.796  5968.800  0.500  2.601730  113.664  8.427626  0.061819
  5969.801  5969.800  0.500  2.567365  113.589  8.716571  0.063874
  5970.795  5970.800  0.500  2.510184  113.514  9.223380  0.072431
  5971.799  5971.800  0.500  2.449961  113.451  9.790490  0.083846
  5972.797  5972.800  0.500  2.398124  113.392  10.306  0.099156
  5973.799  5973.800  0.500  2.356027  113.736  10.7817  0.120064
  5974.799  5974.800  0.500  2.325377  113.659  11.1098  0.141673
  5975.799  5975.800  0.500  2.306467  113.562  11.3122  0.157547
  5976.806  5976.800  0.500  2.296158  113.484  11.4216  0.165376
  5977.800  5977.800  0.500  2.293130  113.38  11.4457  0.163996
  5978.803  5978.800  0.500  2.291638  113.323  11.457  0.157630
  5979.807  5979.800  0.500  2.291538  113.214  11.4471  0.154242
  5980.799  5980.800  0.500  2.290043  113.086  11.4513  0.157411
  5981.806  5981.800  0.500  2.288977  112.917  11.4464  0.164500
  5982.802  5982.800  0.500  2.286906  112.773  11.4555  0.176154
  5983.802  5983.800  0.500  2.284815  112.584  11.4602  0.193141
  5984.806  5984.800  0.500  2.282973  112.316  11.454  0.210201
  5985.803  5985.800  0.500  2.281384  111.938  11.4337  0.223835
  5986.802  5986.800  0.500  2.278979  111.371  11.4031  0.233645
  5987.804  5987.800  0.500  2.277541  110.321  11.3119  0.239415
  5988.803  5988.800  0.500  2.276349  107.845  11.0712  0.240280
  5990.302  5990.290  0.500  2.274974  86.8873  8.931976  0.197997
  5992.326  5992.310  0.500  2.279345  114.077  11.6759  0.262058
  5994.422  5994.420  0.500  2.284526  114.31  11.6393  0.257313
  5996.609  5996.600  0.500  2.291325  113.9  11.519  0.245688
  5998.872  5998.860  0.500  2.297195  113.555  11.4169  0.233597
  6001.199  6001.190  0.500  2.300135  113.311  11.3589  0.223407
  6003.612  6003.600  0.500  2.298196  113.06  11.3558  0.218812
  6006.096  6006.080  0.500  2.290054  112.871  11.4295  0.220016
  6008.640  6008.640  0.500  2.277979  112.688  11.5495  0.224095
  6011.291  6011.280  0.500  2.265705  112.498  11.6724  0.231051
  6014.013  6014.000  0.500  2.256225  112.287  11.7616  0.237770
  6016.797  6016.790  0.500  2.247402  112.112  11.8472  0.242436
  6019.656  6019.650  0.500  2.242412  111.941  11.8884  0.246647
  6022.594  6022.590  0.500  2.238369  111.748  11.916  0.251425
  6025.617  6025.610  0.500  2.234680  111.537  11.9375  0.256095
  6028.714  6028.710  0.500  2.232152  111.338  11.9463  0.259261
  6031.883  6031.880  0.500  2.230499  111.136  11.9444  0.260860
  6035.134  6035.130  0.500  2.231005  110.9  11.913  0.261561
  6038.456  6038.450  0.500  2.230839  110.672  11.8904  0.262602
  6041.851  6041.850  0.500  2.228687  110.442  11.8913  0.263823
  6045.334  6045.330  0.500  2.225380  110.175  11.9018  0.264602
  6048.890  6048.880  0.500  2.220180  109.932  11.9375  0.264798
  6052.515  6052.510  0.500  2.214388  109.615  11.9722  0.265310
  6056.217  6056.210  0.500  2.207777  109.203  12.0063  0.265839
  6059.998  6059.990  0.500  2.200624  108.752  12.0426  0.266678
  6063.856  6063.850  0.500  2.194518  108.349  12.0714  0.266715
  6067.787  6067.780  0.500  2.188485  108.04  12.1098  0.267274
  6071.798  6071.790  0.500  2.183670  107.681  12.1279  0.269024
  6075.890  6075.880  0.500  2.178945  107.337  12.1463  0.272213
  6080.048  6080.040  0.500  2.174595  106.96  12.1565  0.275884
  6084.295  6084.280  0.500  2.169194  106.552  12.1756  0.280264
  6088.595  6088.590  0.500  2.164807  106.145  12.1825  0.283453
  6092.990  6092.980  0.500  2.160352  105.722  12.1881  0.284927
  6097.462  6097.450  0.500  2.154968  105.235  12.1975  0.285535
  6101.999  6101.990  0.500  2.148908  104.751  12.2151  0.285442
  6106.624  6106.610  0.500  2.141534  104.215  12.2426  0.287114
  6111.313  6111.300  0.500  2.134733  103.662  12.2608  0.290654
  6116.078  6116.070  0.500  2.128251  103.089  12.2722  0.294659
  6120.927  6120.920  0.500  2.123213  102.465  12.2596  0.297321
  6125.859  6125.850  0.500  2.119249  101.817  12.2304  0.299531
  6130.860  6130.850  0.500  2.113461  101.141  12.2197  0.302164
  6135.929  6135.920  0.500  2.107386  100.362  12.1995  0.303435
  6141.082  6141.070  0.500  2.100490  99.6032  12.1911  0.304302
  6146.306  6146.300  0.500  2.092873  98.7078  12.1739  0.304709
  6151.618  6151.610  0.500  2.084846  97.7245  12.1497  0.305414
  6156.997  6156.990  0.500  2.077291  96.2295  12.0546  0.305803
  6162.457  6162.450  0.500  2.069909  95.8145  12.0915  0.310339
  6167.987  6167.980  0.500  2.063382  94.0493  11.9465  0.310180
  6173.598  6173.590  0.500  2.057488  95.1565  12.1586  0.319398
  6179.276  6179.270  0.500  2.051812  93.878  12.0635  0.319877
  6185.047  6185.040  0.500  2.045594  92.7112  11.9879  0.319933
  6190.876  6190.870  0.500  2.038903  91.5249  11.9139  0.319582
  6196.800  6196.790  0.500  2.031646  90.3321  11.8443  0.318799
  6202.789  6202.780  0.500  2.024342  89.1136  11.7702  0.319358
  6208.855  6208.850  0.500  2.017167  87.8389  11.6854  0.320702
  6214.995  6214.990  0.500  2.009778  86.5389  11.5978  0.321423
  6221.219  6221.210  0.500  2.001312  85.2218  11.5184  0.323481
  6227.508  6227.500  0.500  1.993900  83.888  11.4225  0.323860
  6233.876  6233.870  0.500  1.987254  82.505  11.3091  0.323092
  6240.329  6240.320  0.500  1.979103  81.1238  11.2108  0.322210
  6246.864  6246.850  0.500  1.971700  79.7119  11.0975  0.320618
  6253.462  6253.450  0.500  1.963295  78.3038  10.9935  0.320315
  6260.122  6260.120  0.500  1.955427  76.8648  10.8767  0.320581
  6266.874  6266.870  0.500  1.947665  75.447  10.7592  0.321495
  6273.702  6273.700  0.500  1.939793  74.0106  10.6378  0.322197
  6280.612  6280.610  0.500  1.931568  72.5833  10.5188  0.322585
  6287.598  6287.590  0.500  1.923555  71.1812  10.3986  0.321853
  6294.657  6294.650  0.500  1.915576  69.7559  10.272  0.320142
  6301.785  6301.780  0.500  1.907185  68.3488  10.1497  0.318284
  6309.001  6308.990  0.500  1.899109  66.9717  10.0258  0.317158
  6316.285  6316.280  0.500  1.890786  65.8557  9.941122  0.318355
  6323.645  6323.640  0.500  1.882362  64.4763  9.815238  0.318584
  6331.084  6331.080  0.500  1.873820  63.1261  9.692125  0.318926
  6338.604  6338.590  0.500  1.866056  61.8044  9.563160  0.318866
  6346.189  6346.180  0.500  1.857588  60.4933  9.439901  0.318797
  6353.860  6353.850  0.500  1.848887  59.1991  9.318668  0.317601
  6361.587  6361.590  0.500  1.839706  57.9394  9.204496  0.316308
  6369.424  6369.410  0.500  1.830480  56.694  9.090115  0.315014
  6377.331  6377.310  0.500  1.821292  55.452  8.973054  0.314665
  6385.269  6385.280  0.500  1.812907  54.2312  8.849399  0.314433
  6393.346  6393.330  0.500  1.804227  53.0172  8.726720  0.314698
  6401.467  6401.450  0.500  1.795119  51.8435  8.611600  0.314898
  6409.668  6409.650  0.500  1.786509  50.693  8.493319  0.314298
  6417.946  6417.930  0.500  1.777990  49.5523  8.373221  0.313373