File: xdidata/Data/Pr/Pr-L3-Pr2O3.xdi
# XDI/1.0 BlueSky/1.5.3
# Beamline.name: 6BM
# Beamline.xray_source: NSLS-II three-pole wiggler
# Beamline.collimation: paraboloid mirror, 5 nm Rh on 30 nm Pt
# Beamline.focusing: not in use
# Beamline.harmonic_rejection: flat mirror, Si stripe, pitch = 7.0 mrad relative to beam
# Detector.i0: 10 cm N2
# Detector.i1: 25 cm N2
# Detector.i2: 25 cm N2
# Element.symbol: Pr
# Element.edge: L3
# Facility.name: NSLS-II
# Facility.energy: 3.0
# Facility.current: 399.6
# Facility.mode: top-off
# Facility.gup: 305832
# Facility.saf: 305669
# Facility.cycle: 2020-1
# Mono.name: Si(111)
# Mono.d_spacing: 3.13532
# Mono.encoder_resolution: 0.0000050 deg/ct
# Mono.angle_offset: 16.0581 deg
# Mono.scan_mode: fixed exit
# Mono.scan_type: step
# Mono.direction: forward in energy
# Sample.name: Pr2O3
# Sample.prep: Cr foil in ref
# Sample.x_position: -7.603 mm
# Sample.y_position: 102.894 mm
# Scan.experimenters: Neil Hyatt, Martin Stennett, Dan Austin, Seb Lawson
# Scan.edge_energy: 5964.3
# Scan.start_time: 2020-03-07T03:28:44
# Scan.end_time: 2020-03-07T03:48:55
# Scan.transient_id: 23444
# Scan.uid: ad1d10b0-9ca9-4b2e-9195-69d06167099a
# Scan.plot_hint: ln(I0/It)  --  ln($5/$6)
# Scan.sequence: merge of 2 scans
# Column.1: energy eV
# Column.2: requested_energy eV
# Column.3: measurement_time seconds
# Column.4: mutrans
# Column.5: i0
# Column.6: itrans
# Column.7: irefer
# /////
#
# -----
# energy   requested_energy   measurement_time   mutrans   i0   itrans   irefer
5764.3 5764.3 1.000000 2.577726 76.943 5.843666 0.949627
5794.31 5794.3 1.000000 2.528388 76.8833 6.134351 1.022509
5824.31 5824.3 1.000000 2.479314 76.7087 6.428250 1.097967
5854.3 5854.3 1.000000 2.431578 76.332 6.709417 1.175420
5884.3 5884.3 1.000000 2.384681 76.6143 7.057580 1.267740
5914.29 5914.3 1.000000 2.339678 75.2164 7.247745 1.335210
5936.29 5936.3 1.000000 2.310237 76.0754 7.549555 1.415926
5942.29 5942.3 1.000000 2.304501 70.0847 6.995060 1.319812
5948.29 5948.3 1.000000 2.302773 76.5919 7.657748 1.451931
5954.29 5954.3 1.000000 2.312736 76.1965 7.542808 1.437102
5955.04 5955.05 1.000000 2.316295 76.1119 7.507475 1.431142
5955.79 5955.8 1.000000 2.320922 76.0445 7.466204 1.424776
5956.54 5956.55 1.000000 2.326820 75.9821 7.416396 1.415816
5957.29 5957.3 1.000000 2.335217 75.9617 7.352349 1.404922
5958.04 5958.05 1.000000 2.346312 75.8965 7.264734 1.389025
5958.8 5958.8 1.000000 2.360323 75.8226 7.156738 1.370419
5959.55 5959.55 1.000000 2.375426 75.8167 7.048811 1.350197
5960.3 5960.3 1.000000 2.394289 75.7474 6.911304 1.325874
5961.05 5961.05 1.000000 2.417466 75.6824 6.746755 1.295245
5961.8 5961.8 1.000000 2.449313 75.6182 6.529864 1.254923
5962.55 5962.55 1.000000 2.494159 75.575 6.240575 1.201533
5963.3 5963.3 1.000000 2.563309 75.5757 5.824019 1.123577
5964.05 5964.05 1.000000 2.662497 75.4935 5.266230 1.018692
5964.81 5964.8 1.000000 2.796208 75.4586 4.606105 0.893579
5965.55 5965.55 1.000000 2.952697 75.3899 3.936185 0.767228
5966.3 5966.3 1.000000 3.129244 75.3792 3.298342 0.645108
5967.05 5967.05 1.000000 3.287567 75.3171 2.813529 0.553447
5967.81 5967.8 1.000000 3.387555 75.2724 2.543344 0.501156
5968.55 5968.55 1.000000 3.402186 75.2305 2.505407 0.493688
5969.3 5969.3 1.000000 3.340612 75.3379 2.667531 0.524621
5970.05 5970.05 1.000000 3.237459 75.2856 2.955976 0.579928
5970.8 5970.8 1.000000 3.121997 75.2276 3.315940 0.648393
5971.55 5971.55 1.000000 3.017734 75.2044 3.678632 0.718577
5972.3 5972.3 1.000000 2.923734 75.1587 4.037783 0.787302
5973.05 5973.05 1.000000 2.847225 75.0993 4.356136 0.849178
5973.8 5973.8 1.000000 2.784147 75.1935 4.646060 0.904807
5974.55 5974.55 1.000000 2.735826 75.1539 4.873135 0.950102
5975.3 5975.3 1.000000 2.699218 75.0798 5.049717 0.983581
5976.05 5976.05 1.000000 2.675296 75.038 5.169412 1.007041
5976.8 5976.8 1.000000 2.660262 74.9795 5.243268 1.021901
5977.55 5977.55 1.000000 2.650891 74.9215 5.288509 1.031895
5978.3 5978.3 1.000000 2.644681 74.8802 5.318576 1.036770
5979.05 5979.05 1.000000 2.640018 74.7934 5.337273 1.041445
5979.8 5979.8 1.000000 2.636040 74.7042 5.352104 1.045110
5980.55 5980.55 1.000000 2.632509 74.6339 5.365996 1.048370
5981.3 5981.3 1.000000 2.628615 74.5573 5.381468 1.051682
5982.05 5982.05 1.000000 2.624618 74.4689 5.396570 1.053930
5982.8 5982.8 1.000000 2.621209 74.3957 5.409630 1.057629
5983.55 5983.55 1.000000 2.618129 74.2838 5.418173 1.058500
5984.3 5984.3 1.000000 2.616314 74.1556 5.418677 1.059490
5985.05 5985.05 1.000000 2.614631 74.016 5.417582 1.058988
5985.81 5985.8 1.000000 2.613672 73.8377 5.409731 1.056359
5986.55 5986.55 1.000000 2.613396 73.6476 5.397290 1.054024
5987.3 5987.3 1.000000 2.613760 73.3621 5.374426 1.047700
5988.05 5988.05 1.000000 2.615401 72.9313 5.334098 1.034951
5988.8 5988.8 1.000000 2.618221 72.2826 5.271764 1.009647
5989.55 5989.55 1.000000 2.621513 70.9668 5.158781 0.957664
5990.3 5990.3 1.000000 2.625077 67.4871 4.888355 0.885199
5991.06 5991.05 1.000000 2.629279 57.544 4.150578 0.740719
5991.8 5991.8 1.000000 2.637562 56.3989 4.034454 0.703202
5992.55 5992.55 1.000000 2.643559 71.77 5.103521 0.876537
5993.3 5993.3 1.000000 2.649984 75.0104 5.299692 0.901545
5994.06 5994.05 1.000000 2.657422 75.2054 5.273870 0.891664
5996.49 5996.48 1.000000 2.680976 74.8322 5.125566 0.866045
5999.89 5999.88 1.000000 2.700786 74.5107 5.003641 0.775920
6003.47 6003.46 1.000000 2.696559 74.1931 5.003420 0.728078
6007.22 6007.21 1.000000 2.669083 73.8744 5.120645 0.710539
6011.14 6011.13 1.000000 2.634391 73.5729 5.279912 0.726928
6015.23 6015.23 1.000000 2.609217 73.2579 5.391133 0.779481
6019.5 6019.49 1.000000 2.596466 72.9602 5.438199 0.764793
6023.94 6023.93 1.000000 2.587378 72.6103 5.461534 0.779882
6028.55 6028.54 1.000000 2.583798 72.2762 5.455901 0.764395
6033.31 6033.31 1.000000 2.585916 71.8722 5.413905 0.755417
6038.28 6038.27 1.000000 2.592926 71.4295 5.342976 0.741291
6043.4 6043.39 1.000000 2.595953 70.9386 5.290232 0.740185
6048.68 6048.68 1.000000 2.589866 70.4661 5.287067 0.751731
6054.15 6054.14 1.000000 2.577510 69.8644 5.307088 0.778303
6059.79 6059.78 1.000000 2.562670 69.1585 5.332033 0.797537
6065.59 6065.59 1.000000 2.550264 68.4862 5.346066 0.792145
6071.58 6071.57 1.000000 2.542955 67.7685 5.328921 0.769600
6077.73 6077.72 1.000000 2.533768 67.1079 5.325639 0.791131
6084.05 6084.04 1.000000 2.521591 66.2812 5.324487 0.819804
6090.52 6090.53 1.000000 2.513613 65.4508 5.299902 0.799355
6097.22 6097.2 1.000000 2.508296 64.5693 5.256425 0.755032
6104.03 6104.04 1.000000 2.504124 63.6615 5.204135 0.756584
6111.04 6111.04 1.000000 2.496786 62.6656 5.160479 0.793785
6118.22 6118.22 1.000000 2.486913 61.6229 5.124980 0.802275
6125.57 6125.57 1.000000 2.471490 60.6661 5.123755 0.802307
6133.1 6133.09 1.000000 2.457552 59.5381 5.099200 0.811824
6140.78 6140.79 1.000000 2.447304 58.3175 5.046017 0.806135
6148.64 6148.65 1.000000 2.438523 57.0134 4.976660 0.789858
6156.68 6156.69 1.000000 2.428578 55.3873 4.883098 0.771613
6164.89 6164.9 1.000000 2.416006 54.0373 4.824308 0.748159
6173.27 6173.28 1.000000 2.403382 53.7407 4.858779 0.770406
6181.82 6181.83 1.000000 2.392492 52.2705 4.777616 0.780270
6190.54 6190.55 1.000000 2.383390 50.8164 4.687171 0.775161
6199.43 6199.44 1.000000 2.374146 49.3892 4.597856 0.768102
6208.5 6208.51 1.000000 2.362011 47.9231 4.515854 0.763206
6217.74 6217.75 1.000000 2.347260 46.4386 4.440967 0.760610
6227.14 6227.15 1.000000 2.332934 45.0149 4.366948 0.742687
6236.72 6236.73 1.000000 2.320923 43.5376 4.274615 0.718044
6246.47 6246.48 1.000000 2.310462 42.149 4.181844 0.701383
6256.4 6256.41 1.000000 2.298115 40.7286 4.091090 0.706625
6266.51 6266.5 1.000000 2.283824 39.3845 4.013070 0.706057
6276.76 6276.77 1.000000 2.269260 38.0569 3.934579 0.698166
6287.2 6287.2 1.000000 2.256079 36.7581 3.850768 0.687950
6297.81 6297.81 1.000000 2.243210 35.5274 3.770062 0.680062
6308.58 6308.59 1.000000 2.230215 34.3374 3.691444 0.672545
6319.53 6319.54 1.000000 2.215866 33.2117 3.622049 0.660611
6330.65 6330.66 1.000000 2.200630 32.1357 3.558514 0.649147
6341.95 6341.96 1.000000 2.185828 31.0626 3.490966 0.642634
6353.42 6353.42 1.000000 2.171162 30.0617 3.428412 0.639438
6365.05 6365.06 1.000000 2.156366 29.1098 3.369327 0.638438
6376.86 6376.87 1.000000 2.141897 28.1867 3.310030 0.633998
6388.84 6388.85 1.000000 2.127015 27.2724 3.250693 0.627947
6400.98 6401 1.000000 2.110929 26.4267 3.200938 0.622337
6413.31 6413.32 1.000000 2.095770 25.6113 3.149554 0.618527
6421.62 6421.63 1.000000 2.086960 25.0789 3.111382 0.613864