File: xdidata/Data/Sm/Sm-L1-Sm2TiO5.xdi
# XDI/1.0 BlueSky/1.10.0 BMM/2023-1.0-py310-tiled
# Beamline.name: BMM (06BM) -- Beamline for Materials Measurement (NIST)
# Beamline.xray_source: NSLS-II three-pole wiggler
# Beamline.collimation: paraboloid mirror, 5 nm Rh on 30 nm Pt
# Beamline.focusing: not in use
# Beamline.harmonic_rejection: flat mirror, Si stripe, pitch = 7.0 mrad relative to beam
# Beamline.software: Bluesky 1.10.0, Ophyd 1.7.0, DataBroker 2.0.0b13, Python 3.10.8, 2023-1.0-py310-tiled
# Detector.I0: 10 cm N2
# Detector.I1: 25 cm N2
# Detector.I2: 25 cm N2
# Element.symbol: Sm
# Element.edge: L1
# Element.reference: Sm
# Element.reference_material: Sm2O3
# Facility.name: NSLS-II
# Facility.energy: 3.0
# Facility.current: 400.1
# Facility.mode: top-off
# Facility.GUP: 123456
# Facility.SAF: 301027
# Facility.cycle: 2023-2
# Mono.name: Si(111)
# Mono.d_spacing: 3.13519
# Mono.encoder_resolution: 0.0000050 deg/ct
# Mono.angle_offset: 16.0754 deg
# Mono.scan_mode: pseudo channel cut
# Mono.scan_type: step
# Mono.direction: forward in energy
# Sample.name: Sm2TiO5
# Sample.prep: Powder in PEG pellet
# Sample.x: 149.848 mm
# Sample.y: 114.690 mm
# Sample.SDD_position: 205.000 mm
# Scan.experimenters: Bruce Ravel
# Scan.edge_energy: 7736.8
# Scan.start_time: 2023-05-08T20:46:13
# Scan.end_time: 2023-05-08T20:52:05
# Scan.transient_id: 75598
# Scan.uid: 927f7f75-69f5-4acd-b0b6-7d80d4d7c12c
# Scan.plot_hint: ln(I0/It)  --  ln($5/$6)
# Column.1: energy eV
# Column.2: requested_energy eV
# Column.3: measurement_time seconds
# Column.4: xmu
# Column.5: I0 nA
# Column.6: It nA
# Column.7: Ir nA
# ///////////
# sample courtesy Martin Stennett, University of Sheffield
# -----------
# energy  requested_energy  measurement_time  xmu  I0  It  Ir
  7536.800  7536.800  0.500  1.523103  147.826  32.2311  1.947658
  7556.862  7556.800  0.500  1.510478  147.485  32.5654  1.988502
  7576.826  7576.800  0.500  1.497417  147.106  32.9086  2.041587
  7596.820  7596.800  0.500  1.485097  146.54  33.1885  2.083757
  7616.811  7616.800  0.500  1.472460  145.67  33.4109  2.127497
  7636.818  7636.800  0.500  1.459966  145.777  33.8559  2.187614
  7656.816  7656.800  0.500  1.448498  145.41  34.1602  2.236221
  7676.810  7676.800  0.500  1.436458  144.97  34.4694  2.282306
  7696.778  7696.800  0.500  1.424256  144.592  34.8014  2.334388
  7708.777  7708.800  0.500  1.417404  144.412  34.9971  2.364905
  7712.789  7712.800  0.500  1.414870  144.244  35.0452  2.373157
  7716.783  7716.800  0.500  1.412810  144.106  35.0837  2.379897
  7720.784  7720.800  0.500  1.410551  141.069  34.4221  2.344441
  7724.786  7724.800  0.500  1.408559  143.975  35.2013  2.393977
  7727.277  7727.300  0.500  1.407396  143.897  35.2231  2.396810
  7728.278  7728.300  0.500  1.407128  143.858  35.2231  2.396942
  7729.277  7729.300  0.500  1.406442  143.818  35.2375  2.396417
  7730.277  7730.300  0.500  1.405863  143.784  35.2495  2.397508
  7731.281  7731.300  0.500  1.405560  143.745  35.2506  2.396228
  7732.284  7732.300  0.500  1.405279  143.711  35.2521  2.394935
  7733.281  7733.300  0.500  1.404920  143.685  35.2585  2.393024
  7734.282  7734.300  0.500  1.404720  143.652  35.2574  2.390013
  7735.287  7735.300  0.500  1.404513  143.61  35.2543  2.384610
  7736.293  7736.300  0.500  1.404381  143.561  35.247  2.376963
  7737.295  7737.300  0.500  1.404651  143.502  35.223  2.363688
  7738.291  7738.300  0.500  1.405087  143.412  35.1855  2.344890
  7739.293  7739.300  0.500  1.405651  143.153  35.1021  2.320887
  7740.290  7740.300  0.500  1.406384  139.827  34.2614  2.250301
  7741.294  7741.300  0.500  1.407000  143.557  35.1537  2.280940
  7742.297  7742.300  0.500  1.407526  144.131  35.2759  2.278897
  7743.297  7743.300  0.500  1.408134  144.077  35.2412  2.262940
  7744.295  7744.300  0.500  1.408786  144.03  35.2067  2.245782
  7745.296  7745.300  0.500  1.409588  143.989  35.1683  2.226475
  7746.297  7746.300  0.500  1.410597  143.946  35.1226  2.201864
  7747.301  7747.300  0.500  1.411991  143.916  35.0663  2.171355
  7748.300  7748.300  0.500  1.413389  143.869  35.0058  2.137249
  7749.291  7749.300  0.500  1.414792  143.839  34.9495  2.100860
  7750.296  7750.300  0.500  1.416609  143.806  34.8781  2.065680
  7751.301  7751.300  0.500  1.417503  143.766  34.8371  2.036618
  7752.306  7752.300  0.500  1.418379  143.733  34.7987  2.016065
  7753.296  7753.300  0.500  1.418616  143.693  34.7807  2.005952
  7754.299  7754.300  0.500  1.418276  143.663  34.7853  2.004497
  7755.300  7755.300  0.500  1.417814  143.641  34.7959  2.009840
  7756.307  7756.300  0.500  1.417514  143.604  34.7975  2.017382
  7757.295  7757.300  0.500  1.416845  143.571  34.8128  2.026627
  7758.294  7758.300  0.500  1.416167  143.538  34.8285  2.035621
  7759.304  7759.300  0.500  1.415855  143.509  34.8323  2.040742
  7760.301  7760.300  0.500  1.415175  143.472  34.8468  2.045683
  7761.298  7761.300  0.500  1.414464  143.442  34.8645  2.049546
  7762.792  7762.790  0.500  1.413349  143.399  34.8928  2.055962
  7764.822  7764.810  0.500  1.411315  143.344  34.9504  2.067282
  7766.928  7766.920  0.500  1.408376  143.289  35.0399  2.086247
  7769.109  7769.100  0.500  1.405195  143.23  35.137  2.110968
  7771.369  7771.360  0.500  1.402346  143.162  35.2206  2.135601
  7773.705  7773.690  0.500  1.400087  143.086  35.2816  2.158278
  7776.110  7776.100  0.500  1.397835  143.034  35.3481  2.177340
  7778.591  7778.580  0.500  1.396351  142.963  35.383  2.189231
  7781.149  7781.140  0.500  1.395264  142.901  35.4062  2.195188
  7783.781  7783.780  0.500  1.394469  142.837  35.4184  2.194100
  7786.507  7786.500  0.500  1.393539  142.757  35.4315  2.188924
  7789.296  7789.290  0.500  1.392521  142.665  35.4449  2.183359
  7792.151  7792.150  0.500  1.391577  142.599  35.4619  2.177568
  7795.099  7795.090  0.500  1.390429  142.517  35.4823  2.173952
  7798.120  7798.110  0.500  1.389198  142.435  35.5055  2.174991
  7801.206  7801.210  0.500  1.388424  142.357  35.5136  2.177301
  7804.385  7804.380  0.500  1.386914  142.262  35.5435  2.181493
  7807.636  7807.630  0.500  1.384937  142.162  35.5887  2.189427
  7810.956  7810.950  0.500  1.382439  142.059  35.6519  2.199769
  7814.355  7814.350  0.500  1.379978  141.966  35.7163  2.213464
  7817.834  7817.830  0.500  1.377688  141.866  35.773  2.228475
  7821.385  7821.380  0.500  1.375416  141.775  35.8315  2.242023
  7825.021  7825.010  0.500  1.372860  141.667  35.8958  2.251401
  7828.720  7828.710  0.500  1.370524  141.572  35.9557  2.260630
  7832.498  7832.490  0.500  1.368287  141.037  35.8999  2.261107
  7836.359  7836.350  0.500  1.366119  141.349  36.0575  2.281353
  7840.287  7840.280  0.500  1.363847  140.39  35.8943  2.276856
  7844.295  7844.290  0.500  1.361221  141.087  36.1673  2.303267
  7848.392  7848.380  0.500  1.359071  140.895  36.1959  2.312916
  7852.551  7852.540  0.500  1.356889  140.808  36.2524  2.323612
  7856.794  7856.780  0.500  1.354929  140.646  36.2819  2.331383
  7861.099  7861.090  0.500  1.352734  140.569  36.3416  2.338837
  7865.494  7865.480  0.500  1.350744  140.452  36.3836  2.343478
  7869.960  7869.950  0.500  1.348422  140.312  36.4319  2.351556
  7874.501  7874.490  0.500  1.345887  140.185  36.4914  2.362141
  7879.123  7879.110  0.500  1.343203  140.059  36.5565  2.374456
  7883.807  7883.800  0.500  1.340395  139.917  36.6222  2.388599
  7888.579  7888.570  0.500  1.337704  139.771  36.6825  2.403348
  7893.429  7893.420  0.500  1.335317  139.63  36.7331  2.416634
  7898.357  7898.350  0.500  1.332459  139.368  36.7691  2.426035
  7903.364  7903.350  0.500  1.329498  139.296  36.8591  2.438233
  7908.436  7908.420  0.500  1.326643  139.16  36.9284  2.447527
  7913.587  7913.570  0.500  1.323671  139  36.9957  2.458554
  7918.812  7918.800  0.500  1.321116  138.844  37.0487  2.470851
  7924.127  7924.110  0.500  1.318219  138.668  37.1091  2.484336
  7929.511  7929.490  0.500  1.315540  138.232  37.0917  2.493082
  7934.981  7934.950  0.500  1.312412  138.236  37.209  2.512412
  7940.481  7940.480  0.500  1.309696  137.932  37.2282  2.518791
  7946.091  7946.090  0.500  1.306850  138.006  37.3543  2.541037
  7951.784  7951.770  0.500  1.303815  137.415  37.3074  2.544053
  7957.551  7957.540  0.500  1.300714  137.55  37.46  2.564046
  7963.379  7963.370  0.500  1.297587  137.318  37.5141  2.576153
  7969.299  7969.290  0.500  1.294308  137.08  37.572  2.589907
  7975.296  7975.280  0.500  1.291235  136.716  37.5875  2.601857
  7981.360  7981.350  0.500  1.287961  136.001  37.5135  2.605322
  7987.504  7987.490  0.500  1.284784  136.172  37.6801  2.630727
  7993.724  7993.710  0.500  1.281340  135.97  37.7541  2.646841
  8000.014  8000.000  0.500  1.278050  135.72  37.809  2.661675
  8006.388  8006.370  0.500  1.274854  135.553  37.8832  2.676103
  8012.833  8012.820  0.500  1.271461  135.543  38.0091  2.694681
  8019.363  8019.350  0.500  1.268147  135.393  38.0931  2.712260
  8025.967  8025.950  0.500  1.264700  135.175  38.1631  2.729995
  8032.636  8032.620  0.500  1.261102  134.917  38.2276  2.747673
  8039.387  8039.370  0.500  1.257938  134.683  38.2823  2.763493
  8046.219  8046.200  0.500  1.254377  134.419  38.3434  2.779821
  8053.122  8053.110  0.500  1.251101  134.064  38.3678  2.794658
  8060.109  8060.090  0.500  1.247476  134.047  38.5021  2.816644
  8067.159  8067.150  0.500  1.243959  133.971  38.6159  2.836854
  8074.294  8074.280  0.500  1.240260  133.814  38.7135  2.855809
  8081.501  8081.490  0.500  1.236485  133.611  38.801  2.873881
  8088.794  8088.780  0.500  1.232866  133.081  38.7873  2.886733
  8096.148  8096.140  0.500  1.228992  133.161  38.9613  2.913229
  8103.583  8103.580  0.500  1.225349  132.815  39.0017  2.930189
  8111.095  8111.090  0.500  1.221755  132.523  39.0561  2.949428
  8118.688  8118.680  0.500  1.218123  132.224  39.1098  2.968665
  8126.364  8126.350  0.500  1.214467  131.909  39.1596  2.986500
  8134.106  8134.090  0.500  1.210689  131.587  39.2118  3.004635
  8141.912  8141.910  0.500  1.206849  131.271  39.2683  3.024168
  8149.824  8149.810  0.500  1.203355  130.944  39.3076  3.040844
  8157.789  8157.780  0.500  1.199305  130.62  39.3695  3.059975
  8165.844  8165.830  0.500  1.195143  130.292  39.4342  3.079797
  8173.967  8173.950  0.500  1.191250  129.968  39.4897  3.099292
  8182.159  8182.150  0.500  1.187444  129.63  39.537  3.117694
  8190.442  8190.430  0.500  1.183389  129.292  39.5941  3.139951
  8198.794  8198.780  0.500  1.179520  128.943  39.6403  3.160714
  8207.227  8207.210  0.500  1.175660  128.639  39.7001  3.183544
  8215.722  8215.710  0.500  1.171673  128.265  39.7428  3.203367
  8224.298  8224.290  0.500  1.167505  127.89  39.792  3.224839
  8232.969  8232.950  0.500  1.163475  127.533  39.8412  3.244457
  8241.705  8241.690  0.500  1.159465  127.164  39.8855  3.265552
  8250.512  8250.500  0.500  1.155243  126.775  39.9318  3.287198
  8259.433  8259.380  0.500  1.151269  126.387  39.9681  3.308702
  8268.352  8268.340  0.500  1.147051  125.997  40.0132  3.331391
  8277.430  8277.380  0.500  1.142903  125.53  40.0303  3.351542
  8281.987  8281.930  0.500  1.140940  125.337  40.0474  3.362710