File: xdidata/Data/Sm/Sm-L3-Sm2Ti2O7.xdi
# XDI/1.0 BlueSky/1.10.0 BMM/2023-1.0-py310-tiled
# Beamline.name: BMM (06BM) -- Beamline for Materials Measurement (NIST)
# Beamline.xray_source: NSLS-II three-pole wiggler
# Beamline.collimation: paraboloid mirror, 5 nm Rh on 30 nm Pt
# Beamline.focusing: not in use
# Beamline.harmonic_rejection: flat mirror, Si stripe, pitch = 7.0 mrad relative to beam
# Beamline.software: Bluesky 1.10.0, Ophyd 1.7.0, DataBroker 2.0.0b13, Python 3.10.8, 2023-1.0-py310-tiled
# Detector.I0: 10 cm N2
# Detector.I1: 25 cm N2
# Detector.I2: 25 cm N2
# Element.symbol: Sm
# Element.edge: L3
# Element.reference: Sm
# Element.reference_material: Sm2O3
# Facility.name: NSLS-II
# Facility.energy: 3.0
# Facility.current: 400.2
# Facility.mode: top-off
# Facility.GUP: 123456
# Facility.SAF: 301027
# Facility.cycle: 2023-2
# Mono.name: Si(111)
# Mono.d_spacing: 3.13519
# Mono.encoder_resolution: 0.0000050 deg/ct
# Mono.angle_offset: 16.0754 deg
# Mono.scan_mode: pseudo channel cut
# Mono.scan_type: step
# Mono.direction: forward in energy
# Sample.name: Sm2Ti2O7
# Sample.prep: Powder in PEG pellet
# Sample.x: 149.848 mm
# Sample.y: 114.690 mm
# Sample.SDD_position: 205.000 mm
# Scan.experimenters: Bruce Ravel
# Scan.edge_energy: 6716.2
# Scan.start_time: 2023-05-08T17:18:15
# Scan.end_time: 2023-05-08T17:24:16
# Scan.transient_id: 75439
# Scan.uid: 8e06aea0-65bd-4882-b850-229de59ca69b
# Scan.plot_hint: ln(I0/It)  --  ln($5/$6)
# Column.1: energy eV
# Column.2: requested_energy eV
# Column.3: measurement_time seconds
# Column.4: xmu
# Column.5: I0 nA
# Column.6: It nA
# Column.7: Ir nA
# ///////////
# sample courtesy Martin Stennett, University of Sheffield
# -----------
# energy  requested_energy  measurement_time  xmu  I0  It  Ir
  6516.203  6516.200  0.500  1.378892  150.992  38.0284  3.231670
  6536.220  6536.200  0.500  1.360569  151.381  38.8314  3.368812
  6556.214  6556.200  0.500  1.343019  151.666  39.5934  3.504871
  6576.214  6576.200  0.500  1.325141  152.016  40.4005  3.648567
  6596.215  6596.200  0.500  1.308181  152.306  41.1699  3.793685
  6616.214  6616.200  0.500  1.291093  152.582  41.9556  3.943168
  6636.209  6636.200  0.500  1.274155  152.844  42.7455  4.095637
  6656.199  6656.200  0.500  1.257938  153.059  43.5055  4.243881
  6676.193  6676.200  0.500  1.242144  153.258  44.2555  4.382370
  6688.197  6688.200  0.500  1.232351  153.38  44.7267  4.448890
  6692.196  6692.200  0.500  1.230242  153.394  44.825  4.454904
  6696.198  6696.200  0.500  1.226779  153.404  44.9836  4.455493
  6700.195  6700.200  0.500  1.224417  153.425  45.0961  4.432510
  6704.196  6704.200  0.500  1.222126  153.444  45.2052  4.368692
  6706.687  6706.700  0.500  1.222319  153.448  45.1974  4.276811
  6707.683  6707.700  0.500  1.221912  153.445  45.2151  4.222229
  6708.683  6708.700  0.500  1.222355  153.448  45.1959  4.143020
  6709.686  6709.700  0.500  1.223108  153.452  45.1631  4.035103
  6710.690  6710.700  0.500  1.224177  153.445  45.1128  3.909980
  6711.686  6711.700  0.500  1.225183  153.452  45.0694  3.791286
  6712.689  6712.700  0.500  1.227466  153.455  44.9677  3.619519
  6713.691  6713.700  0.500  1.230203  153.455  44.8446  3.388011
  6714.691  6714.700  0.500  1.234279  153.455  44.6624  3.103239
  6715.689  6715.700  0.500  1.240469  153.454  44.3863  2.741151
  6716.698  6716.700  0.500  1.251000  153.447  43.9194  2.248612
  6717.689  6717.700  0.500  1.265189  153.442  43.2993  1.729034
  6718.696  6718.700  0.500  1.282961  153.439  42.5355  1.262552
  6719.698  6719.700  0.500  1.300034  153.417  41.8097  0.960713
  6720.698  6720.700  0.500  1.312702  153.418  41.2836  0.797935
  6721.695  6721.700  0.500  1.318565  153.425  41.0442  0.736252
  6722.701  6722.700  0.500  1.316083  153.418  41.1442  0.749324
  6723.696  6723.700  0.500  1.308556  153.422  41.4562  0.823790
  6724.698  6724.700  0.500  1.297112  153.438  41.9376  0.957174
  6725.699  6725.700  0.500  1.284707  153.439  42.4613  1.136655
  6726.701  6726.700  0.500  1.273256  153.441  42.951  1.340160
  6727.696  6727.700  0.500  1.264120  153.438  43.3444  1.537623
  6728.704  6728.700  0.500  1.257288  153.429  43.639  1.702945
  6729.699  6729.700  0.500  1.253030  153.426  43.8243  1.816781
  6730.699  6730.700  0.500  1.249735  153.496  43.989  1.886788
  6731.702  6731.700  0.500  1.247018  153.708  44.1695  1.928718
  6732.702  6732.700  0.500  1.245000  153.697  44.2556  1.952472
  6733.701  6733.700  0.500  1.242575  153.687  44.3603  1.971299
  6734.703  6734.700  0.500  1.241329  153.684  44.4146  1.985502
  6735.704  6735.700  0.500  1.240478  153.683  44.4522  1.996941
  6736.704  6736.700  0.500  1.239801  153.67  44.4785  2.005398
  6737.699  6737.700  0.500  1.239528  153.668  44.4902  2.012846
  6738.703  6738.700  0.500  1.239845  153.659  44.4735  2.016550
  6739.705  6739.700  0.500  1.240311  153.669  44.4555  2.018734
  6740.698  6740.700  0.500  1.240737  153.662  44.4345  2.018882
  6742.194  6742.190  0.500  1.240762  153.656  44.4318  2.015908
  6744.218  6744.210  0.500  1.239480  153.663  44.4908  2.004408
  6746.328  6746.320  0.500  1.237904  153.655  44.5587  1.967888
  6748.506  6748.500  0.500  1.237218  153.646  44.5865  1.906316
  6750.748  6750.760  0.500  1.236943  153.617  44.5905  1.834278
  6753.082  6753.090  0.500  1.237362  153.623  44.5736  1.769787
  6755.498  6755.500  0.500  1.236468  153.619  44.6121  1.730412
  6757.981  6757.980  0.500  1.234458  153.621  44.7025  1.729726
  6760.544  6760.540  0.500  1.232218  153.609  44.7994  1.768661
  6763.186  6763.180  0.500  1.228901  153.614  44.9496  1.835522
  6765.911  6765.900  0.500  1.224818  153.619  45.1351  1.909654
  6768.700  6768.690  0.500  1.221260  153.624  45.2973  1.966508
  6771.554  6771.550  0.500  1.217785  153.625  45.4553  2.002184
  6774.493  6774.490  0.500  1.215295  153.642  45.5736  2.019722
  6777.517  6777.510  0.500  1.213028  153.65  45.6795  2.028116
  6780.623  6780.610  0.500  1.211754  153.676  45.7455  2.031159
  6783.788  6783.780  0.500  1.210568  153.686  45.8027  2.032328
  6787.040  6787.030  0.500  1.209333  153.719  45.869  2.031350
  6790.359  6790.350  0.500  1.207384  153.752  45.9686  2.028658
  6793.756  6793.750  0.500  1.204007  152.459  45.7361  2.007646
  6797.237  6797.230  0.500  1.201205  152.857  45.9841  2.003526
  6800.790  6800.780  0.500  1.198093  153.372  46.2828  2.011955
  6804.418  6804.410  0.500  1.193979  153.449  46.497  2.024732
  6808.118  6808.110  0.500  1.191107  153.442  46.6287  2.034178
  6811.892  6811.890  0.500  1.189966  144.721  44.0286  1.917387
  6815.757  6815.750  0.500  1.187115  153.301  46.7723  2.053561
  6819.691  6819.680  0.500  1.184772  153.378  46.9055  2.069038
  6823.697  6823.690  0.500  1.181963  142.599  43.7316  1.938208
  6827.793  6827.780  0.500  1.178411  153.163  47.1385  2.103890
  6831.953  6831.940  0.500  1.175020  153.273  47.3326  2.128132
  6836.183  6836.180  0.500  1.171407  153.297  47.5115  2.156209
  6840.500  6840.490  0.500  1.167568  142.268  44.2629  2.033290
  6844.894  6844.880  0.500  1.164665  152.753  47.6631  2.199935
  6849.357  6849.350  0.500  1.162155  152.932  47.8388  2.208740
  6853.898  6853.890  0.500  1.159433  152.972  47.982  2.209562
  6858.522  6858.510  0.500  1.156707  152.99  48.1183  2.210516
  6863.209  6863.200  0.500  1.153184  152.983  48.2862  2.212195
  6867.978  6867.970  0.500  1.149490  153.045  48.4845  2.219762
  6872.830  6872.820  0.500  1.145604  153.074  48.6824  2.240713
  6877.756  6877.750  0.500  1.141644  153.104  48.8852  2.269661
  6882.766  6882.750  0.500  1.137896  153.09  49.0641  2.301173
  6887.827  6887.820  0.500  1.133952  153.094  49.2593  2.325978
  6892.985  6892.970  0.500  1.130519  153.085  49.4258  2.342024
  6898.216  6898.200  0.500  1.127058  153.069  49.5922  2.353124
  6903.522  6903.510  0.500  1.123822  153.039  49.7429  2.364473
  6908.899  6908.890  0.500  1.119865  152.965  49.916  2.380545
  6914.364  6914.350  0.500  1.116281  152.834  50.0525  2.399231
  6919.892  6919.880  0.500  1.112240  152.711  50.2147  2.426057
  6925.505  6925.490  0.500  1.108363  152.643  50.3874  2.453638
  6931.184  6931.170  0.500  1.104358  152.577  50.5677  2.480013
  6936.952  6936.940  0.500  1.099684  152.525  50.7873  2.505582
  6942.779  6942.770  0.500  1.095680  152.469  50.9721  2.523082
  6948.705  6948.690  0.500  1.091261  152.381  51.1684  2.539344
  6954.690  6954.680  0.500  1.086918  152.321  51.3708  2.555946
  6960.761  6960.750  0.500  1.082985  152.261  51.5531  2.575341
  6966.903  6966.890  0.500  1.079077  152.22  51.7408  2.598926
  6973.123  6973.110  0.500  1.075030  152.189  51.9402  2.627333
  6979.412  6979.400  0.500  1.071188  152.096  52.1083  2.654173
  6985.776  6985.770  0.500  1.066715  152.021  52.3161  2.683656
  6992.232  6992.220  0.500  1.061856  151.953  52.5473  2.708485
  6998.759  6998.750  0.500  1.057469  151.841  52.7396  2.727419
  7005.365  7005.350  0.500  1.052907  151.753  52.9501  2.749235
  7012.033  7012.020  0.500  1.048666  151.647  53.1377  2.775989
  7018.785  7018.770  0.500  1.044525  151.564  53.3293  2.805275
  7025.614  7025.600  0.500  1.040072  151.465  53.5322  2.835222
  7032.521  7032.510  0.500  1.035355  151.35  53.7445  2.866125
  7039.501  7039.490  0.500  1.030636  151.233  53.9568  2.900419
  7046.561  7046.550  0.500  1.025836  151.091  54.1656  2.932755
  7053.687  7053.680  0.500  1.020843  150.968  54.3925  2.962568
  7060.901  7060.890  0.500  1.015978  150.875  54.6242  2.991278
  7068.190  7068.180  0.500  1.011178  150.699  54.8228  3.018742
  7075.548  7075.540  0.500  1.006669  149.144  54.5022  3.017121
  7082.977  7082.980  0.500  1.001665  149.116  54.7655  3.052770
  7090.490  7090.490  0.500  0.997059  150.173  55.4085  3.108824
  7098.082  7098.080  0.500  0.992068  150.702  55.8817  3.159811
  7105.753  7105.750  0.500  0.986996  150.532  56.1023  3.197526
  7113.493  7113.490  0.500  0.982309  150.115  56.2101  3.227715
  7121.315  7121.310  0.500  0.977524  149.756  56.3444  3.257607
  7129.213  7129.210  0.500  0.972612  149.25  56.4305  3.285790
  7137.184  7137.180  0.500  0.967691  148.91  56.5796  3.317686
  7145.240  7145.230  0.500  0.962436  148.794  56.8334  3.356453
  7153.360  7153.350  0.500  0.957427  148.656  57.0658  3.394977
  7161.566  7161.550  0.500  0.952543  148.428  57.2574  3.431847
  7169.838  7169.830  0.500  0.947611  148.1  57.4132  3.467311
  7178.188  7178.180  0.500  0.942774  147.842  57.5911  3.506403
  7186.632  7186.610  0.500  0.937538  147.576  57.7893  3.546409
  7195.139  7195.110  0.500  0.932253  147.203  57.9486  3.586618
  7203.704  7203.690  0.500  0.926661  146.931  58.1659  3.628183
  7212.368  7212.350  0.500  0.921145  146.565  58.3422  3.667310
  7221.108  7221.090  0.500  0.916112  146.22  58.4984  3.704284
  7229.927  7229.900  0.500  0.910716  146.055  58.7485  3.748323
  7238.774  7238.780  0.500  0.905356  145.706  58.9231  3.787878
  7247.726  7247.740  0.500  0.900358  145.294  59.051  3.828860
  7256.774  7256.780  0.500  0.895081  145.127  59.2952  3.880443
  7265.905  7265.900  0.500  0.889560  143.995  59.1584  3.903794
  7275.078  7275.090  0.500  0.884637  144.843  59.8006  3.983092
  7284.349  7284.360  0.500  0.878775  142.255  59.0771  3.968842
  7289.029  7289.020  0.500  0.876143  144.559  60.1923  4.055777