File: xdidata/Data/Sm/Sm-L3-SamariumOxide.xdi
# XDI/1.0 BlueSky/1.10.0 BMM/2023-1.0-py310-tiled
# Beamline.name: BMM (06BM) -- Beamline for Materials Measurement (NIST)
# Beamline.xray_source: NSLS-II three-pole wiggler
# Beamline.collimation: paraboloid mirror, 5 nm Rh on 30 nm Pt
# Beamline.focusing: not in use
# Beamline.harmonic_rejection: flat mirror, Si stripe, pitch = 7.0 mrad relative to beam
# Beamline.software: Bluesky 1.10.0, Ophyd 1.7.0, DataBroker 2.0.0b13, Python 3.10.8, 2023-1.0-py310-tiled
# Detector.I0: 10 cm N2
# Detector.I1: 25 cm N2
# Detector.I2: 25 cm N2
# Element.symbol: Sm
# Element.edge: L3
# Element.reference: Sm
# Element.reference_material: Sm2O3
# Facility.name: NSLS-II
# Facility.energy: 3.0
# Facility.current: 399.8
# Facility.mode: top-off
# Facility.GUP: 301027
# Facility.SAF: 310583
# Facility.cycle: 2023-2
# Mono.name: Si(111)
# Mono.d_spacing: 3.13519
# Mono.encoder_resolution: 0.0000050 deg/ct
# Mono.angle_offset: 16.0754 deg
# Mono.scan_mode: pseudo channel cut
# Mono.scan_type: step
# Mono.direction: forward in energy
# Sample.name: Sm2O3
# Sample.prep: PEG pellet
# Sample.x: 109.138 mm
# Sample.y: 153.150 mm
# Sample.SDD_position: 205.000 mm
# Scan.experimenters: Bruce Ravel
# Scan.edge_energy: 6716.2
# Scan.start_time: 2023-05-28T12:47:25
# Scan.end_time: 2023-05-28T12:54:33
# Scan.transient_id: 78693
# Scan.uid: fb4a542a-9527-4c77-abc3-811d9e1a9039
# Scan.plot_hint: ln(It/Ir)  --  ln($6/$7)
# Column.1: energy eV
# Column.2: requested_energy eV
# Column.3: measurement_time seconds
# Column.4: xmu
# Column.5: I0 nA
# Column.6: It nA
# Column.7: Ir nA
# ///////////
# sample courtesy Martin Stennett, University of Sheffield
# -----------
# energy  requested_energy  measurement_time  xmu  I0  It  Ir
  6516.205  6516.200  0.500  2.890517  152.315  122.023  6.778086
  6546.194  6546.200  0.500  2.852686  152.878  123.976  7.152063
  6576.221  6576.200  0.500  2.815693  153.348  125.912  7.537514
  6606.210  6606.200  0.500  2.778846  153.804  127.789  7.937026
  6636.209  6636.200  0.500  2.743169  154.234  129.634  8.344058
  6666.203  6666.200  0.500  2.710426  154.597  131.428  8.741055
  6688.180  6688.200  0.500  2.696036  154.455  132.414  8.934277
  6694.185  6694.200  0.500  2.697500  154.498  132.738  8.943032
  6700.189  6700.200  0.500  2.707315  154.944  133.382  8.898657
  6706.192  6706.200  0.500  2.741871  154.971  133.72  8.618227
  6707.086  6707.100  0.500  2.752671  154.993  133.755  8.527896
  6707.985  6708.000  0.500  2.766460  154.967  133.768  8.411927
  6708.888  6708.900  0.500  2.785657  154.951  133.878  8.258751
  6709.785  6709.800  0.500  2.811009  154.946  133.851  8.050379
  6710.687  6710.700  0.500  2.842217  154.939  133.932  7.807736
  6711.595  6711.600  0.500  2.872262  154.985  134.038  7.582646
  6712.489  6712.500  0.500  2.909982  154.963  134.026  7.301317
  6713.387  6713.400  0.500  2.966473  154.948  134.035  6.900745
  6714.297  6714.300  0.500  3.042532  154.944  134.081  6.397533
  6715.195  6715.200  0.500  3.140347  154.978  134.207  5.806825
  6716.093  6716.100  0.500  3.283126  154.978  134.174  5.032973
  6716.995  6717.000  0.500  3.502082  154.954  134.255  4.045710
  6717.897  6717.900  0.500  3.811456  154.981  134.323  2.970683
  6718.799  6718.800  0.500  4.209160  154.966  134.343  1.996187
  6719.702  6719.700  0.500  4.634487  154.968  134.375  1.304923
  6720.595  6720.600  0.500  5.021538  154.956  134.396  0.886257
  6721.498  6721.500  0.500  5.281386  154.965  134.475  0.683858
  6722.404  6722.400  0.500  5.350260  154.934  134.443  0.638192
  6723.298  6723.300  0.500  5.228603  154.966  134.578  0.721472
  6724.192  6724.200  0.500  4.982935  154.992  134.644  0.922839
  6725.102  6725.100  0.500  4.698359  154.979  134.653  1.226721
  6725.999  6726.000  0.500  4.424654  154.976  134.741  1.613979
  6726.898  6726.900  0.500  4.196512  154.995  134.794  2.028380
  6727.801  6727.800  0.500  4.011478  155.002  134.823  2.441188
  6728.697  6728.700  0.500  3.879229  154.994  134.882  2.787570
  6729.598  6729.600  0.500  3.789966  154.965  134.887  3.047966
  6730.500  6730.500  0.500  3.736526  155.002  134.95  3.216764
  6731.400  6731.400  0.500  3.706384  154.998  134.928  3.314656
  6732.305  6732.300  0.500  3.689261  154.992  135.058  3.375159
  6733.201  6733.200  0.500  3.678806  154.989  135.097  3.411613
  6734.099  6734.100  0.500  3.670122  154.971  135.1  3.441447
  6735.004  6735.000  0.500  3.662866  154.983  135.169  3.468278
  6735.905  6735.900  0.500  3.656656  154.954  135.208  3.490893
  6736.801  6736.800  0.500  3.651841  154.998  135.25  3.508828
  6737.697  6737.700  0.500  3.647697  154.993  135.29  3.524436
  6738.602  6738.600  0.500  3.644748  155.002  135.358  3.536640
  6739.502  6739.500  0.500  3.642563  154.996  135.392  3.545272
  6740.401  6740.400  0.500  3.641336  154.995  135.43  3.550607
  6741.199  6741.200  0.500  3.641791  154.977  135.395  3.548067
  6744.222  6744.210  0.500  3.652009  154.964  135.558  3.516246
  6747.384  6747.400  0.500  3.696165  154.934  135.749  3.369080
  6750.748  6750.760  0.500  3.772862  154.927  135.961  3.125224
  6754.277  6754.280  0.500  3.843383  154.933  136.072  2.914794
  6757.983  6757.980  0.500  3.865341  154.943  136.264  2.855525
  6761.854  6761.850  0.500  3.817217  154.957  136.46  3.000610
  6765.901  6765.900  0.500  3.742573  154.948  136.655  3.237777
  6770.112  6770.110  0.500  3.692882  155.473  137.321  3.419312
  6774.493  6774.490  0.500  3.674410  155.5  137.52  3.488101
  6779.064  6779.050  0.500  3.671638  155.487  137.822  3.505481
  6783.786  6783.780  0.500  3.672480  155.515  137.995  3.506911
  6788.686  6788.680  0.500  3.677245  155.569  138.302  3.498012
  6793.766  6793.750  0.500  3.688011  154.897  137.923  3.451058
  6798.999  6798.990  0.500  3.700157  155.142  138.378  3.420661
  6804.420  6804.410  0.500  3.697580  155.364  138.904  3.442509
  6809.998  6809.990  0.500  3.693799  154.983  138.748  3.451670
  6815.753  6815.750  0.500  3.686406  155.095  139.237  3.489545
  6821.686  6821.680  0.500  3.675707  155.053  139.422  3.531771
  6827.789  6827.780  0.500  3.662981  154.864  139.554  3.580385
  6834.053  6834.050  0.500  3.647577  155.015  139.983  3.647131
  6840.498  6840.490  0.500  3.626498  144.889  131.132  3.489317
  6847.108  6847.100  0.500  3.615633  154.66  140.287  3.773701
  6853.896  6853.890  0.500  3.620210  154.738  140.678  3.766935
  6860.865  6860.850  0.500  3.625075  154.607  140.875  3.753922
  6867.980  6867.970  0.500  3.627329  154.847  141.41  3.759694
  6875.281  6875.270  0.500  3.615450  154.853  141.803  3.815190
  6882.762  6882.750  0.500  3.594618  154.853  142.162  3.905362
  6890.397  6890.390  0.500  3.581954  154.864  142.515  3.964949
  6898.212  6898.200  0.500  3.577827  154.835  142.864  3.991093
  6906.204  6906.190  0.500  3.573796  154.754  143.168  4.015748
  6914.362  6914.350  0.500  3.563994  154.578  143.375  4.061154
  6922.682  6922.670  0.500  3.548263  154.409  143.615  4.132468
  6931.188  6931.170  0.500  3.532743  154.315  143.938  4.206540
  6939.867  6939.850  0.500  3.522213  154.23  144.266  4.260762
  6948.703  6948.690  0.500  3.516343  154.164  144.613  4.296138
  6957.710  6957.700  0.500  3.510245  154.086  144.882  4.330461
  6966.905  6966.890  0.500  3.499563  154.032  145.326  4.390384
  6976.263  6976.250  0.500  3.485759  153.931  145.626  4.460610
  6985.789  6985.770  0.500  3.470838  153.831  145.95  4.537714
  6995.483  6995.470  0.500  3.460831  153.696  146.335  4.595440
  7005.360  7005.350  0.500  3.452636  153.603  146.624  4.642417
  7015.407  7015.390  0.500  3.440480  153.438  146.982  4.710669
  7025.611  7025.600  0.500  3.427026  153.305  147.286  4.784340
  7036.000  7035.990  0.500  3.412851  153.125  147.581  4.862357
  7046.563  7046.550  0.500  3.397982  152.963  147.887  4.945433
  7057.291  7057.280  0.500  3.386261  152.788  148.171  5.013374
  7068.188  7068.180  0.500  3.375534  152.615  148.515  5.079193
  7079.265  7079.250  0.500  3.363728  152.309  148.704  5.146054
  7090.497  7090.490  0.500  3.350062  152.103  148.981  5.226588
  7101.907  7101.910  0.500  3.335053  151.852  149.258  5.315477
  7113.493  7113.490  0.500  3.319970  151.349  149.272  5.396752
  7125.250  7125.250  0.500  3.306081  150.818  149.246  5.471293
  7137.188  7137.180  0.500  3.292554  150.122  149.088  5.539916
  7149.289  7149.280  0.500  3.278465  149.989  149.491  5.633714
  7161.553  7161.550  0.500  3.263858  149.695  149.723  5.725483
  7173.997  7173.990  0.500  3.248401  149.254  149.789  5.817228
  7186.619  7186.610  0.500  3.232778  148.812  149.86  5.911638
  7199.397  7199.390  0.500  3.216446  148.354  149.94  6.012199
  7212.363  7212.350  0.500  3.201171  147.831  149.906  6.103366
  7225.489  7225.480  0.500  3.186978  147.419  150.005  6.194691
  7238.798  7238.780  0.500  3.172330  147.443  150.613  6.311542
  7252.268  7252.250  0.500  3.155381  146.844  150.594  6.418640
  7265.932  7265.900  0.500  3.136841  143.206  147.407  6.400373
  7279.750  7279.710  0.500  3.121374  146.582  151.397  6.676080
  7289.038  7289.020  0.500  3.112247  146.177  151.316  6.733713