File: xdidata/Data/Sm/Sm-L1-Sm2O3-m.xdi
# XDI/1.0 BlueSky/1.10.0 BMM/2023-1.0-py310-tiled
# Beamline.name: BMM (06BM) -- Beamline for Materials Measurement (NIST)
# Beamline.xray_source: NSLS-II three-pole wiggler
# Beamline.collimation: paraboloid mirror, 5 nm Rh on 30 nm Pt
# Beamline.focusing: not in use
# Beamline.harmonic_rejection: flat mirror, Si stripe, pitch = 7.0 mrad relative to beam
# Beamline.software: Bluesky 1.10.0, Ophyd 1.7.0, DataBroker 2.0.0b13, Python 3.10.8, 2023-1.0-py310-tiled
# Detector.I0: 10 cm N2
# Detector.I1: 25 cm N2
# Detector.I2: 25 cm N2
# Element.symbol: Sm
# Element.edge: L1
# Element.reference: Sm
# Element.reference_material: Sm2O3
# Facility.name: NSLS-II
# Facility.energy: 3.0
# Facility.current: 400.0
# Facility.mode: top-off
# Facility.GUP: 123456
# Facility.SAF: 301027
# Facility.cycle: 2023-2
# Mono.name: Si(111)
# Mono.d_spacing: 3.13519
# Mono.encoder_resolution: 0.0000050 deg/ct
# Mono.angle_offset: 16.0754 deg
# Mono.scan_mode: pseudo channel cut
# Mono.scan_type: step
# Mono.direction: forward in energy
# Sample.name: monoclinic Sm2O3
# Sample.prep: Powder in PEG pellet
# Sample.x: 123.848 mm
# Sample.y: 114.690 mm
# Sample.SDD_position: 205.000 mm
# Scan.experimenters: Bruce Ravel
# Scan.edge_energy: 7736.8
# Scan.start_time: 2023-05-08T20:39:39
# Scan.end_time: 2023-05-08T20:45:28
# Scan.transient_id: 75593
# Scan.uid: 5d260751-4b3b-485e-8b93-18a1a19e3b0b
# Scan.plot_hint: ln(I0/It)  --  ln($5/$6)
# Column.1: energy eV
# Column.2: requested_energy eV
# Column.3: measurement_time seconds
# Column.4: xmu
# Column.5: I0 nA
# Column.6: It nA
# Column.7: Ir nA
# ///////////
# sample courtesy Martin Stennett, University of Sheffield
# -----------
# energy  requested_energy  measurement_time  xmu  I0  It  Ir
  7536.812  7536.800  0.500  3.059515  147.744  6.930745  0.385485
  7556.896  7556.800  0.500  3.043759  147.418  7.025259  0.394655
  7576.831  7576.800  0.500  3.020773  147.037  7.170037  0.409486
  7596.822  7596.800  0.500  3.003508  146.488  7.267650  0.420451
  7616.819  7616.800  0.500  2.981695  145.602  7.383024  0.433541
  7637.877  7636.800  0.500  2.958646  145.706  7.560582  0.452474
  7656.801  7656.800  0.500  2.941484  145.364  7.673392  0.465261
  7676.805  7676.800  0.500  2.924330  144.934  7.783047  0.477786
  7696.806  7696.800  0.500  2.905120  144.547  7.912843  0.492268
  7708.790  7708.800  0.500  2.894236  144.368  7.989524  0.500743
  7712.789  7712.800  0.500  2.891318  144.195  8.003251  0.502704
  7716.783  7716.800  0.500  2.888705  144.047  8.015954  0.504600
  7720.789  7720.800  0.500  2.886589  140.943  7.859864  0.496201
  7724.786  7724.800  0.500  2.885156  143.914  8.037057  0.507012
  7727.280  7727.300  0.500  2.884752  143.822  8.035154  0.507041
  7728.278  7728.300  0.500  2.884779  143.789  8.033102  0.506968
  7729.277  7729.300  0.500  2.885489  143.752  8.025305  0.506434
  7730.279  7730.300  0.500  2.885982  143.709  8.018969  0.505731
  7731.279  7731.300  0.500  2.886919  143.667  8.009118  0.505068
  7732.286  7732.300  0.500  2.888122  143.634  7.997619  0.503951
  7733.286  7733.300  0.500  2.889557  143.605  7.984581  0.502391
  7734.279  7734.300  0.500  2.892165  143.569  7.961761  0.500436
  7735.290  7735.300  0.500  2.895826  143.523  7.930107  0.497038
  7736.288  7736.300  0.500  2.901254  143.476  7.884604  0.492332
  7737.295  7737.300  0.500  2.909905  143.416  7.813453  0.485453
  7738.286  7738.300  0.500  2.921055  143.329  7.722106  0.476561
  7739.288  7739.300  0.500  2.934744  143.064  7.603062  0.464971
  7740.300  7740.300  0.500  2.949505  139.701  7.315527  0.443513
  7741.297  7741.300  0.500  2.962418  142.956  7.389924  0.442561
  7742.292  7742.300  0.500  2.973513  144.009  7.362212  0.438141
  7743.297  7743.300  0.500  2.983406  143.956  7.287059  0.431184
  7744.298  7744.300  0.500  2.993268  143.911  7.213323  0.423108
  7745.296  7745.300  0.500  3.004633  143.872  7.129857  0.415168
  7746.294  7746.300  0.500  3.018675  143.832  7.028482  0.404827
  7747.296  7747.300  0.500  3.036989  143.791  6.898963  0.391674
  7748.302  7748.300  0.500  3.058636  143.753  6.749449  0.377301
  7749.302  7749.300  0.500  3.081454  143.722  6.595759  0.362464
  7750.296  7750.300  0.500  3.104281  143.689  6.445414  0.348163
  7751.296  7751.300  0.500  3.122555  143.664  6.327589  0.336787
  7752.304  7752.300  0.500  3.135727  143.634  6.243495  0.328840
  7753.301  7753.300  0.500  3.142242  143.597  6.201375  0.324560
  7754.299  7754.300  0.500  3.141920  143.562  6.201840  0.324627
  7755.298  7755.300  0.500  3.138297  143.536  6.223225  0.326342
  7756.304  7756.300  0.500  3.132659  143.518  6.257643  0.329649
  7757.303  7757.300  0.500  3.127645  143.493  6.287976  0.332630
  7758.302  7758.300  0.500  3.124104  143.461  6.308899  0.335287
  7759.291  7759.300  0.500  3.122090  143.439  6.320643  0.336979
  7760.299  7760.300  0.500  3.121192  143.399  6.324555  0.337663
  7761.309  7761.300  0.500  3.120640  143.373  6.326908  0.338829
  7762.792  7762.790  0.500  3.118915  143.339  6.336319  0.340072
  7764.822  7764.810  0.500  3.113347  143.294  6.369678  0.343050
  7766.925  7766.920  0.500  3.103302  143.245  6.431811  0.349242
  7769.109  7769.100  0.500  3.088788  143.184  6.523053  0.357358
  7771.369  7771.360  0.500  3.073843  143.124  6.618511  0.366663
  7773.700  7773.690  0.500  3.060337  143.058  6.705419  0.375053
  7776.105  7776.100  0.500  3.047993  142.99  6.785463  0.382289
  7778.586  7778.580  0.500  3.039922  142.932  6.837690  0.387307
  7781.149  7781.140  0.500  3.036461  142.873  6.858532  0.389685
  7783.791  7783.780  0.500  3.037122  142.805  6.850740  0.388585
  7786.505  7786.500  0.500  3.040565  142.733  6.823774  0.385896
  7789.309  7789.290  0.500  3.045009  142.663  6.790154  0.382387
  7792.159  7792.150  0.500  3.049826  142.587  6.753920  0.379296
  7795.099  7795.090  0.500  3.053126  142.511  6.728090  0.376661
  7798.120  7798.110  0.500  3.052659  142.438  6.727817  0.376719
  7801.221  7801.210  0.500  3.050548  142.35  6.737862  0.377653
  7804.385  7804.380  0.500  3.048697  142.266  6.746346  0.378437
  7807.636  7807.630  0.500  3.046237  142.178  6.758794  0.379885
  7810.959  7810.950  0.500  3.042464  142.074  6.779359  0.382347
  7814.365  7814.350  0.500  3.037252  141.973  6.809954  0.386316
  7817.850  7817.830  0.500  3.030855  141.876  6.848948  0.390443
  7821.393  7821.380  0.500  3.025446  141.778  6.881378  0.393958
  7825.015  7825.010  0.500  3.022475  141.672  6.896653  0.396119
  7828.720  7828.710  0.500  3.018738  141.578  6.917909  0.398466
  7832.509  7832.490  0.500  3.012965  141.067  6.932831  0.400047
  7836.364  7836.350  0.500  3.006148  141.352  6.994345  0.405538
  7840.295  7840.280  0.500  2.999325  140.426  6.996136  0.406635
  7844.306  7844.290  0.500  2.993316  141.106  7.072369  0.412826
  7848.408  7848.380  0.500  2.988602  140.905  7.095651  0.415983
  7852.527  7852.540  0.500  2.984249  140.807  7.121673  0.418652
  7856.773  7856.780  0.500  2.980303  140.647  7.141712  0.420953
  7861.089  7861.090  0.500  2.978387  140.567  7.151330  0.422145
  7865.489  7865.480  0.500  2.977098  140.437  7.153923  0.422980
  7869.966  7869.950  0.500  2.974349  140.297  7.166471  0.424306
  7874.498  7874.490  0.500  2.970246  140.174  7.189617  0.427160
  7879.118  7879.110  0.500  2.964869  140.034  7.221168  0.430474
  7883.807  7883.800  0.500  2.958525  139.889  7.259594  0.434824
  7888.574  7888.570  0.500  2.952070  139.759  7.299835  0.439119
  7893.424  7893.420  0.500  2.946022  139.613  7.336405  0.443631
  7898.360  7898.350  0.500  2.942710  139.329  7.345772  0.445613
  7903.372  7903.350  0.500  2.939283  139.272  7.368009  0.447911
  7908.436  7908.420  0.500  2.935739  139.127  7.386452  0.450400
  7913.582  7913.570  0.500  2.931037  138.948  7.411733  0.453360
  7918.806  7918.800  0.500  2.925272  138.774  7.445222  0.456886
  7924.122  7924.110  0.500  2.918782  138.63  7.485946  0.461333
  7929.514  7929.490  0.500  2.912070  138.194  7.512673  0.465030
  7934.965  7934.950  0.500  2.905658  138.205  7.561555  0.470083
  7940.486  7940.480  0.500  2.900351  137.94  7.587229  0.473059
  7946.099  7946.090  0.500  2.895694  137.97  7.624320  0.477915
  7951.779  7951.770  0.500  2.891237  137.385  7.625868  0.479262
  7957.549  7957.540  0.500  2.887075  137.513  7.664819  0.483618
  7963.387  7963.370  0.500  2.881983  137.293  7.691665  0.487138
  7969.304  7969.290  0.500  2.876412  137.056  7.721274  0.490892
  7975.293  7975.280  0.500  2.870131  136.681  7.748645  0.494803
  7981.368  7981.350  0.500  2.863576  135.991  7.760233  0.497511
  7987.499  7987.490  0.500  2.857957  136.117  7.811200  0.503578
  7993.727  7993.710  0.500  2.851045  135.9  7.852843  0.508252
  8000.011  8000.000  0.500  2.845003  135.677  7.887444  0.512845
  8006.380  8006.370  0.500  2.839780  135.505  7.918684  0.517210
  8012.830  8012.820  0.500  2.834211  135.505  7.962920  0.521683
  8019.355  8019.350  0.500  2.827722  135.358  8.006082  0.526916
  8025.973  8025.950  0.500  2.820637  135.131  8.049489  0.532834
  8032.627  8032.620  0.500  2.813808  134.886  8.089968  0.538089
  8039.387  8039.370  0.500  2.807220  134.625  8.127681  0.543018
  8046.214  8046.200  0.500  2.800751  134.364  8.164560  0.548064
  8053.128  8053.110  0.500  2.793947  134.032  8.199991  0.553159
  8060.109  8060.090  0.500  2.787424  134.527  8.284125  0.561423
  8067.159  8067.150  0.500  2.781462  134.069  8.305306  0.565149
  8074.300  8074.280  0.500  2.775390  133.923  8.346791  0.570974
  8081.498  8081.490  0.500  2.769211  133.718  8.385626  0.576248
  8088.799  8088.780  0.500  2.762487  133.179  8.408203  0.580453
  8096.148  8096.140  0.500  2.755360  133.25  8.472883  0.587813
  8103.592  8103.580  0.500  2.748677  132.908  8.507756  0.593346
  8111.100  8111.090  0.500  2.741385  132.624  8.551708  0.599574
  8118.697  8118.680  0.500  2.733614  132.348  8.600472  0.606373
  8126.370  8126.350  0.500  2.726923  132.036  8.637806  0.611989
  8134.109  8134.090  0.500  2.720041  131.722  8.676824  0.617932
  8141.918  8141.910  0.500  2.713065  131.404  8.716473  0.624158
  8149.830  8149.810  0.500  2.706250  131.083  8.754604  0.630154
  8157.795  8157.780  0.500  2.698744  130.785  8.800548  0.636539
  8165.847  8165.830  0.500  2.691571  130.443  8.840689  0.642861
  8174.005  8173.950  0.500  2.683974  130.099  8.884634  0.649195
  8182.213  8182.150  0.500  2.676769  129.775  8.926599  0.656043
  8190.491  8190.430  0.500  2.669147  129.434  8.971251  0.662831
  8198.803  8198.780  0.500  2.661458  129.095  9.016825  0.670029
  8207.265  8207.210  0.500  2.654023  128.75  9.059846  0.677053
  8215.762  8215.710  0.500  2.646498  128.41  9.104111  0.684113
  8224.322  8224.290  0.500  2.639209  128.051  9.145142  0.691262
  8232.963  8232.950  0.500  2.632054  127.693  9.185042  0.698139
  8241.740  8241.690  0.500  2.624280  127.319  9.229615  0.705399
  8250.483  8250.500  0.500  2.616596  126.938  9.272936  0.713047
  8259.430  8259.380  0.500  2.608611  126.575  9.320574  0.720842
  8268.391  8268.340  0.500  2.600258  126.184  9.369720  0.729027
  8277.430  8277.380  0.500  2.592543  125.708  9.406679  0.736006
  8281.905  8281.930  0.500  2.588486  125.53  9.431503  0.740169