File: xdidata/Pb/Pb-L1-Cerrusite.xdi
# XDI/1.0 BlueSky/1.10.0 BMM/2023-1.0-py310-tiled
# Beamline.name: BMM (06BM) -- Beamline for Materials Measurement (NIST)
# Beamline.xray_source: NSLS-II three-pole wiggler
# Beamline.collimation: paraboloid mirror, 5 nm Rh on 30 nm Pt
# Beamline.focusing: not in use
# Beamline.harmonic_rejection: flat mirror, Pt stripe, pitch = 7.0 mrad relative to beam
# Beamline.software: Bluesky 1.10.0, Ophyd 1.7.0, DataBroker 2.0.0b13, Python 3.10.8, 2023-1.0-py310-tiled
# Detector.I0: 10 cm N2
# Detector.I1: 25 cm N2
# Detector.I2: 25 cm N2
# Element.symbol: Pb
# Element.edge: L1
# Element.reference: Pb
# Element.reference_material: Pb foil
# Facility.name: NSLS-II
# Facility.energy: 3.0
# Facility.current: 401.0
# Facility.mode: top-off
# Facility.GUP: 301027
# Facility.SAF: 310583
# Facility.cycle: 2023-2
# Mono.name: Si(111)
# Mono.d_spacing: 3.13519
# Mono.encoder_resolution: 0.0000050 deg/ct
# Mono.angle_offset: 16.0754 deg
# Mono.scan_mode: pseudo channel cut
# Mono.scan_type: step
# Mono.direction: forward in energy
# Sample.name: PbCO3
# Sample.prep: powder on tape
# Sample.x: 143.785 mm
# Sample.y: 114.695 mm
# Sample.SDD_position: 205.000 mm
# Scan.experimenters: Bruce Ravel
# Scan.edge_energy: 15860.8
# Scan.start_time: 2023-06-23T18:30:26
# Scan.end_time: 2023-06-23T18:38:45
# Scan.transient_id: 84936
# Scan.uid: e41eae72-643c-4ad5-b4e9-27742c4d792d
# Scan.plot_hint: ln(I0/It)  --  ln($5/$6)
# Column.1: energy eV
# Column.2: requested_energy eV
# Column.3: measurement_time seconds
# Column.4: xmu
# Column.5: I0 nA
# Column.6: It nA
# Column.7: Ir nA
# ///////////
# BMM standards collection
# -----------
# energy  requested_energy  measurement_time  xmu  I0  It  Ir
  15660.859  15660.800  0.500  -0.012941  24.7572  25.0796  7.004807
  15690.908  15690.800  0.500  -0.015843  24.5817  24.9743  7.012291
  15720.900  15720.800  0.500  -0.018661  24.4004  24.8601  7.017209
  15750.802  15750.800  0.500  -0.021627  24.2109  24.7402  7.016919
  15780.818  15780.800  0.500  -0.023969  24.0394  24.6226  7.011884
  15810.851  15810.800  0.500  -0.025586  23.864  24.4824  6.988791
  15832.785  15832.800  0.500  -0.024639  23.7304  24.3224  6.922454
  15838.770  15838.800  0.500  -0.023272  23.6987  24.2567  6.881450
  15844.803  15844.800  0.500  -0.020227  23.6533  24.1366  6.806022
  15850.775  15850.800  0.500  -0.013173  23.608  23.9211  6.647859
  15851.644  15851.700  0.500  -0.011589  23.6042  23.8794  6.613258
  15852.535  15852.600  0.500  -0.009472  23.6018  23.8264  6.573405
  15853.427  15853.500  0.500  -0.007223  23.5888  23.7598  6.522369
  15854.373  15854.400  0.500  -0.004311  23.5984  23.7003  6.468673
  15855.287  15855.300  0.500  -0.000924  23.5907  23.6125  6.400294
  15856.190  15856.200  0.500  0.002964  23.5887  23.5188  6.326815
  15857.081  15857.100  0.500  0.007718  23.5828  23.4015  6.236539
  15857.973  15858.000  0.500  0.013446  23.5796  23.2646  6.132950
  15858.876  15858.900  0.500  0.019950  23.5745  23.1088  6.016786
  15859.769  15859.800  0.500  0.027226  23.5734  22.9403  5.894834
  15860.661  15860.700  0.500  0.034944  23.5681  22.7588  5.769570
  15861.575  15861.600  0.500  0.042795  23.5815  22.5936  5.652087
  15862.457  15862.500  0.500  0.049524  23.5785  22.4392  5.551802
  15863.393  15863.400  0.500  0.055164  23.5756  22.3103  5.472174
  15864.275  15864.300  0.500  0.058486  23.5789  22.2394  5.425167
  15865.201  15865.200  0.500  0.059384  23.5746  22.2154  5.404938
  15866.082  15866.100  0.500  0.058175  23.5696  22.2375  5.411566
  15866.986  15867.000  0.500  0.054939  23.5691  22.3092  5.438185
  15867.901  15867.900  0.500  0.050623  23.5622  22.3991  5.477581
  15868.806  15868.800  0.500  0.045799  23.5619  22.5071  5.522501
  15869.688  15869.700  0.500  0.041136  23.5583  22.6089  5.567162
  15870.592  15870.600  0.500  0.036843  23.5511  22.6992  5.606495
  15871.486  15871.500  0.500  0.033028  23.5447  22.7797  5.639157
  15872.412  15872.400  0.500  0.030128  23.5404  22.8417  5.664278
  15873.295  15873.300  0.500  0.027886  23.5296  22.8826  5.679397
  15874.200  15874.200  0.500  0.026067  23.5246  22.9193  5.689530
  15875.116  15875.100  0.500  0.024664  23.5164  22.9435  5.696241
  15876.010  15876.000  0.500  0.023908  23.5136  22.9581  5.696494
  15876.915  15876.900  0.500  0.023194  23.5091  22.9701  5.693976
  15877.798  15877.800  0.500  0.022887  23.5069  22.975  5.691879
  15878.692  15878.700  0.500  0.022726  23.5008  22.9728  5.686509
  15879.587  15879.600  0.500  0.022747  23.4928  22.9644  5.682061
  15880.492  15880.500  0.500  0.022875  23.4849  22.9537  5.677050
  15881.376  15881.400  0.500  0.023412  23.48  22.9367  5.675098
  15882.292  15882.300  0.500  0.023850  23.4681  22.915  5.673760
  15883.198  15883.200  0.500  0.024520  23.5441  22.9738  5.694093
  15884.115  15884.100  0.500  0.025251  23.5303  22.9436  5.692301
  15885.010  15885.000  0.500  0.026149  23.5294  22.9221  5.693020
  15885.828  15885.800  0.500  0.027051  23.5229  22.8951  5.692817
  15888.845  15888.810  0.500  0.029953  23.5017  22.8082  5.687458
  15891.997  15892.000  0.500  0.031773  23.4823  22.7479  5.677054
  15895.371  15895.360  0.500  0.031501  23.4629  22.7354  5.668171
  15898.901  15898.880  0.500  0.029670  23.4404  22.7551  5.659138
  15902.588  15902.580  0.500  0.027805  23.412  22.77  5.654053
  15906.498  15906.450  0.500  0.026491  23.3873  22.7758  5.660919
  15910.544  15910.500  0.500  0.025252  23.2993  22.7183  5.664672
  15914.713  15914.710  0.500  0.023798  23.3065  22.7584  5.691558
  15919.140  15919.090  0.500  0.023211  23.3267  22.7915  5.703900
  15923.669  15923.650  0.500  0.023610  23.292  22.7485  5.689755
  15928.412  15928.380  0.500  0.024579  23.268  22.7031  5.678052
  15933.280  15933.280  0.500  0.024610  23.2346  22.6698  5.673393
  15938.373  15938.350  0.500  0.024126  23.1951  22.6422  5.676263
  15943.615  15943.590  0.500  0.023190  23.1662  22.6352  5.685734
  15948.994  15949.010  0.500  0.022459  22.9898  22.4792  5.655408
  15954.599  15954.590  0.500  0.021668  23.1058  22.6105  5.694707
  15960.331  15960.350  0.500  0.020695  23.0706  22.598  5.695308
  15966.246  15966.280  0.500  0.019580  23.0273  22.5808  5.697092
  15972.321  15972.380  0.500  0.018708  22.9849  22.5589  5.699254
  15978.894  15978.650  0.500  0.018389  22.9455  22.5275  5.700085
  15985.068  15985.090  0.500  0.017746  22.7381  22.3382  5.658960
  15991.763  15991.700  0.500  0.017097  22.8646  22.4771  5.704717
  15998.453  15998.490  0.500  0.016586  22.8153  22.44  5.703504
  16005.349  16005.450  0.500  0.015762  22.7752  22.4191  5.707207
  16012.533  16012.570  0.500  0.014979  22.7265  22.3886  5.708852
  16019.847  16019.870  0.500  0.014047  22.671  22.3547  5.709749
  16027.302  16027.350  0.500  0.013292  22.5449  22.2473  5.690895
  16034.956  16034.990  0.500  0.012160  22.6014  22.3282  5.720921
  16042.775  16042.800  0.500  0.011185  22.5591  22.3082  5.723123
  16050.737  16050.790  0.500  0.010439  22.5056  22.2719  5.722698
  16058.956  16058.950  0.500  0.009695  22.4644  22.2476  5.726077
  16067.262  16067.270  0.500  0.008983  22.4103  22.2099  5.728229
  16075.769  16075.770  0.500  0.008046  22.3286  22.1496  5.722393
  16084.445  16084.450  0.500  0.007004  22.3169  22.1611  5.733909
  16093.277  16093.290  0.500  0.006018  22.2624  22.1288  5.733730
  16102.300  16102.300  0.500  0.005127  22.2049  22.0913  5.736611
  16111.493  16111.490  0.500  0.004103  22.1574  22.0667  5.740250
  16120.833  16120.850  0.500  0.002862  22.0963  22.0332  5.742164
  16130.355  16130.370  0.500  0.001878  22.0485  22.0071  5.747861
  16140.070  16140.070  0.500  0.001088  22.0018  21.9779  5.751704
  16149.935  16149.950  0.500  -0.000009  21.937  21.9372  5.752025
  16160.006  16159.990  0.500  -0.001208  21.9039  21.9304  5.761539
  16170.182  16170.200  0.500  -0.002291  21.8381  21.8882  5.763086
  16180.600  16180.590  0.500  -0.003477  21.781  21.8569  5.767707
  16191.192  16191.150  0.500  -0.004514  21.7167  21.815  5.769320
  16201.867  16201.880  0.500  -0.005606  21.6575  21.7793  5.775100
  16212.787  16212.780  0.500  -0.006866  21.6035  21.7524  5.778190
  16223.859  16223.850  0.500  -0.007991  21.543  21.7159  5.780089
  16235.075  16235.090  0.500  -0.009193  21.436  21.634  5.772357
  16246.560  16246.510  0.500  -0.010396  21.4115  21.6353  5.786837
  16258.119  16258.090  0.500  -0.011578  21.3401  21.5886  5.787903
  16269.822  16269.850  0.500  -0.012747  21.2757  21.5487  5.791510
  16281.833  16281.780  0.500  -0.014178  21.2154  21.5183  5.795777
  16293.908  16293.880  0.500  -0.015412  21.1482  21.4767  5.796978
  16306.153  16306.150  0.500  -0.016724  21.0203  21.3748  5.783671
  16318.638  16318.590  0.500  -0.018105  20.9941  21.3776  5.798833
  16331.212  16331.210  0.500  -0.019283  20.9281  21.3356  5.802020
  16343.993  16343.990  0.500  -0.020495  20.8697  21.3019  5.808076
  16356.959  16356.950  0.500  -0.021833  20.7993  21.2584  5.809582
  16370.086  16370.080  0.500  -0.023330  20.696  21.1845  5.806261
  16383.410  16383.380  0.500  -0.024651  20.6544  21.1698  5.816199
  16396.827  16396.850  0.500  -0.026037  20.5728  21.1155  5.817353
  16410.514  16410.500  0.500  -0.027254  20.5112  21.0779  5.821134
  16424.343  16424.310  0.500  -0.028767  20.4305  21.0267  5.821765
  16438.301  16438.300  0.500  -0.030012  20.3395  20.9592  5.818680
  16452.497  16452.460  0.500  -0.031498  20.2736  20.9224  5.825187
  16466.812  16466.790  0.500  -0.033161  20.2  20.8811  5.828326
  16481.308  16481.290  0.500  -0.034531  20.1223  20.8293  5.831332
  16495.984  16495.960  0.500  -0.036002  20.0456  20.7804  5.834212
  16510.841  16510.800  0.500  -0.037481  19.9641  20.7266  5.834480
  16525.858  16525.820  0.500  -0.038909  19.8806  20.6694  5.835799
  16541.021  16541.000  0.500  -0.040419  19.7942  20.6107  5.835524
  16556.381  16556.360  0.500  -0.041896  19.7239  20.5678  5.841330
  16571.914  16571.890  0.500  -0.043593  19.6357  20.5106  5.841087
  16587.585  16587.590  0.500  -0.045040  19.5511  20.4518  5.839346
  16603.516  16603.460  0.500  -0.046452  19.4592  20.3845  5.836902
  16619.574  16619.510  0.500  -0.047965  19.3711  20.3229  5.838573
  16635.772  16635.720  0.500  -0.049580  19.2919  20.2725  5.841829
  16652.173  16652.110  0.500  -0.051268  19.1936  20.2033  5.837017
  16668.667  16668.670  0.500  -0.052813  19.0962  20.1319  5.834029
  16685.401  16685.400  0.500  -0.054365  18.9942  20.0555  5.830565
  16702.341  16702.300  0.500  -0.055969  18.8305  19.9145  5.807809
  16713.718  16713.660  0.500  -0.057267  18.0758  19.1412  5.588908