File: xdidata/Pb/Pb-L1-LeadFoil.xdi
# XDI/1.0 BlueSky/1.10.0 BMM/2023-1.0-py310-tiled
# Beamline.name: BMM (06BM) -- Beamline for Materials Measurement (NIST)
# Beamline.xray_source: NSLS-II three-pole wiggler
# Beamline.collimation: paraboloid mirror, 5 nm Rh on 30 nm Pt
# Beamline.focusing: not in use
# Beamline.harmonic_rejection: flat mirror, Pt stripe, pitch = 7.0 mrad relative to beam
# Beamline.software: Bluesky 1.10.0, Ophyd 1.7.0, DataBroker 2.0.0b13, Python 3.10.8, 2023-1.0-py310-tiled
# Detector.I0: 10 cm N2
# Detector.I1: 25 cm N2
# Detector.I2: 25 cm N2
# Element.symbol: Pb
# Element.edge: L1
# Element.reference: Pb
# Element.reference_material: Pb foil
# Facility.name: NSLS-II
# Facility.energy: 3.0
# Facility.current: 399.5
# Facility.mode: top-off
# Facility.GUP: 301027
# Facility.SAF: 310583
# Facility.cycle: 2023-2
# Mono.name: Si(111)
# Mono.d_spacing: 3.13519
# Mono.encoder_resolution: 0.0000050 deg/ct
# Mono.angle_offset: 16.0754 deg
# Mono.scan_mode: pseudo channel cut
# Mono.scan_type: step
# Mono.direction: forward in energy
# Sample.name: Pb foil
# Sample.prep: reference foil
# Sample.x: 109.138 mm
# Sample.y: 153.150 mm
# Sample.SDD_position: 205.000 mm
# Scan.experimenters: Bruce Ravel
# Scan.edge_energy: 15860.8
# Scan.start_time: 2023-05-28T21:36:43
# Scan.end_time: 2023-05-28T21:44:12
# Scan.transient_id: 79036
# Scan.uid: e3ca848f-d3ff-4bd5-ad72-294bd51d37a1
# Scan.plot_hint: ln(It/Ir)  --  ln($6/$7)
# Column.1: energy eV
# Column.2: requested_energy eV
# Column.3: measurement_time seconds
# Column.4: xmu
# Column.5: I0 nA
# Column.6: It nA
# Column.7: Ir nA
# ///////////
# standard reference foil
# -----------
# energy  requested_energy  measurement_time  xmu  I0  It  Ir
  15660.720  15660.800  0.500  1.297320  22.8079  41.7802  11.417
  15690.854  15690.800  0.500  1.292101  22.8564  41.8869  11.506
  15720.857  15720.800  0.500  1.286687  22.7249  41.6556  11.5046
  15750.823  15750.800  0.500  1.281516  22.5661  41.3779  11.4872
  15780.851  15780.800  0.500  1.277639  22.4508  41.1798  11.4766
  15810.840  15810.800  0.500  1.275219  22.3158  40.9456  11.439
  15832.763  15832.800  0.500  1.277912  22.2027  40.7503  11.3538
  15838.737  15838.800  0.500  1.281173  22.1668  40.6889  11.2998
  15844.770  15844.800  0.500  1.287276  22.1362  40.6342  11.2159
  15850.786  15850.800  0.500  1.301357  22.1008  40.5672  11.0408
  15851.655  15851.700  0.500  1.304777  22.1093  40.5835  11.0076
  15852.546  15852.600  0.500  1.308888  22.0746  40.5244  10.9465
  15853.438  15853.500  0.500  1.313510  22.1416  40.652  10.9303
  15854.351  15854.400  0.500  1.318931  22.1659  40.6915  10.8818
  15855.254  15855.300  0.500  1.325429  22.1573  40.6777  10.8076
  15856.146  15856.200  0.500  1.333115  22.1453  40.6529  10.7183
  15857.059  15857.100  0.500  1.342435  22.1367  40.6464  10.6172
  15857.962  15858.000  0.500  1.352865  22.1322  40.6391  10.5052
  15858.854  15858.900  0.500  1.364822  22.1305  40.6352  10.3793
  15859.769  15859.800  0.500  1.378000  22.1138  40.598  10.234
  15860.705  15860.700  0.500  1.391935  22.1242  40.6173  10.0972
  15861.564  15861.600  0.500  1.404813  22.1073  40.5915  9.961677
  15862.501  15862.500  0.500  1.416567  22.0871  40.5547  9.836347
  15863.393  15863.400  0.500  1.425437  22.0885  40.5538  9.749277
  15864.319  15864.300  0.500  1.431650  22.0834  40.5518  9.688399
  15865.201  15865.200  0.500  1.434651  22.0819  40.5433  9.657344
  15866.093  15866.100  0.500  1.434952  22.0795  40.5404  9.653756
  15867.008  15867.000  0.500  1.433381  22.0537  40.4929  9.657614
  15867.879  15867.900  0.500  1.430519  22.0507  40.4925  9.685198
  15868.806  15868.800  0.500  1.426849  22.0625  40.5109  9.725213
  15869.699  15869.700  0.500  1.423451  22.0499  40.4843  9.751906
  15870.603  15870.600  0.500  1.420213  22.0363  40.4594  9.777510
  15871.486  15871.500  0.500  1.417721  22.0274  40.4449  9.798396
  15872.379  15872.400  0.500  1.416061  22.0222  40.4413  9.813817
  15873.317  15873.300  0.500  1.414968  22.0145  40.426  9.820834
  15874.178  15874.200  0.500  1.414606  22.0006  40.4016  9.818449
  15875.083  15875.100  0.500  1.414835  22.0036  40.406  9.817272
  15875.999  15876.000  0.500  1.415270  21.9935  40.3852  9.807962
  15876.893  15876.900  0.500  1.415685  22.0073  40.4169  9.811583
  15877.798  15877.800  0.500  1.416754  21.9949  40.3918  9.795008
  15878.692  15878.700  0.500  1.417342  21.9962  40.3963  9.790325
  15879.620  15879.600  0.500  1.417693  21.9765  40.3555  9.777028
  15880.492  15880.500  0.500  1.418243  21.9841  40.3773  9.776925
  15881.387  15881.400  0.500  1.417932  21.9598  40.3294  9.768358
  15882.315  15882.300  0.500  1.417374  21.9732  40.3558  9.780219
  15883.209  15883.200  0.500  1.416466  21.9601  40.3259  9.781834
  15884.093  15884.100  0.500  1.415633  21.9644  40.3388  9.793137
  15885.043  15885.000  0.500  1.414299  21.9527  40.3236  9.802512
  15885.795  15885.800  0.500  1.413329  21.928  40.2721  9.799500
  15888.801  15888.810  0.500  1.410187  21.9194  40.2566  9.826551
  15891.997  15892.000  0.500  1.409117  21.9126  40.2466  9.834612
  15895.382  15895.360  0.500  1.410280  21.8822  40.1912  9.809678
  15898.868  15898.880  0.500  1.412685  21.858  40.1456  9.774990
  15902.599  15902.580  0.500  1.414338  21.8441  40.1259  9.754069
  15906.443  15906.450  0.500  1.413468  21.8304  40.1027  9.756910
  15910.533  15910.500  0.500  1.410251  21.778  40.0031  9.764028
  15914.746  15914.710  0.500  1.407096  21.7579  39.9652  9.785617
  15919.106  15919.090  0.500  1.406473  21.7892  40.031  9.807836
  15923.636  15923.650  0.500  1.407163  21.7481  39.9578  9.783142
  15928.434  15928.380  0.500  1.407087  21.728  39.9224  9.775229
  15933.302  15933.280  0.500  1.406591  21.7243  39.9242  9.780501
  15938.373  15938.350  0.500  1.404721  21.6785  39.8368  9.777370
  15943.615  15943.590  0.500  1.402637  21.6567  39.7946  9.787394
  15949.016  15949.010  0.500  1.400927  21.4949  39.503  9.732285
  15954.588  15954.590  0.500  1.399969  21.6282  39.7503  9.802605
  15960.376  15960.350  0.500  1.399270  21.5825  39.6719  9.790100
  15966.290  15966.280  0.500  1.398158  21.5611  39.6337  9.791562
  15972.411  15972.380  0.500  1.397002  21.6147  39.7361  9.828218
  15978.648  15978.650  0.500  1.395261  21.5727  39.6553  9.825332
  15985.080  15985.090  0.500  1.394055  21.3869  39.3155  9.752880
  15991.730  15991.700  0.500  1.392418  21.5279  39.5846  9.835732
  15998.497  15998.490  0.500  1.390995  21.4907  39.5225  9.834296
  16005.506  16005.450  0.500  1.389617  21.4623  39.4665  9.833886
  16012.578  16012.570  0.500  1.387720  21.4276  39.4101  9.838493
  16019.880  16019.870  0.500  1.386186  21.3754  39.3137  9.829480
  16027.392  16027.350  0.500  1.384538  21.2862  39.1503  9.804776
  16035.012  16034.990  0.500  1.382935  21.3147  39.2058  9.834427
  16042.820  16042.800  0.500  1.381777  21.2987  39.183  9.840098
  16050.805  16050.790  0.500  1.379891  21.2556  39.1037  9.838737
  16058.945  16058.950  0.500  1.378359  21.225  39.0473  9.839581
  16067.296  16067.270  0.500  1.376490  21.1782  38.9661  9.837498
  16075.747  16075.770  0.500  1.374766  21.1015  38.8368  9.821767
  16084.479  16084.450  0.500  1.373066  21.106  38.845  9.840565
  16093.299  16093.290  0.500  1.371382  21.0606  38.7709  9.838341
  16102.323  16102.300  0.500  1.369648  21.0156  38.6884  9.834444
  16111.470  16111.490  0.500  1.367451  20.982  38.6222  9.839207
  16120.878  16120.850  0.500  1.365603  20.9307  38.5404  9.836555
  16130.423  16130.370  0.500  1.363205  20.8935  38.4736  9.843081
  16140.059  16140.070  0.500  1.361397  20.8589  38.4152  9.845909
  16150.015  16149.950  0.500  1.359517  20.8148  38.336  9.844087
  16159.972  16159.990  0.500  1.357360  20.7639  38.2468  9.842395
  16170.239  16170.200  0.500  1.355316  20.7024  38.1388  9.834685
  16180.623  16180.590  0.500  1.352807  20.6878  38.113  9.852725
  16191.169  16191.150  0.500  1.350866  20.6198  37.9959  9.841525
  16201.925  16201.880  0.500  1.348636  20.5632  37.8965  9.837712
  16212.833  16212.780  0.500  1.346397  20.526  37.8301  9.842496
  16223.859  16223.850  0.500  1.344164  20.4794  37.7449  9.842256
  16235.167  16235.090  0.500  1.341933  20.3954  37.5987  9.826060
  16246.560  16246.510  0.500  1.339537  20.3715  37.5531  9.837667
  16258.119  16258.090  0.500  1.336995  20.3184  37.4624  9.838895
  16269.892  16269.850  0.500  1.334421  20.2725  37.3807  9.842733
  16281.764  16281.780  0.500  1.332287  20.2239  37.2977  9.841872
  16293.943  16293.880  0.500  1.329751  20.1664  37.1984  9.840580
  16306.188  16306.150  0.500  1.327116  20.0669  37.0165  9.818290
  16318.603  16318.590  0.500  1.324952  20.0626  37.0117  9.838306
  16331.236  16331.210  0.500  1.322245  20.0023  36.9089  9.837575
  16344.075  16343.990  0.500  1.319794  19.9451  36.8053  9.834017
  16356.959  16356.950  0.500  1.317151  19.8927  36.7111  9.834814
  16370.121  16370.080  0.500  1.314601  19.8144  36.5755  9.823499
  16383.481  16383.380  0.500  1.312174  19.7832  36.5197  9.832358
  16396.804  16396.850  0.500  1.309497  19.7147  36.3967  9.825500
  16410.479  16410.500  0.500  1.306808  19.6592  36.3052  9.827186
  16424.272  16424.310  0.500  1.304090  19.5989  36.1988  9.825047
  16438.254  16438.300  0.500  1.301502  19.5145  36.0512  9.810349
  16452.437  16452.460  0.500  1.298537  19.47  35.971  9.817585
  16466.800  16466.790  0.500  1.295722  19.4154  35.8739  9.818698
  16481.284  16481.290  0.500  1.292941  19.3417  35.7453  9.810752
  16495.936  16495.960  0.500  1.290492  19.2856  35.6446  9.807095
  16510.829  16510.800  0.500  1.287272  19.2702  35.6193  9.831729
  16525.810  16525.820  0.500  1.284652  19.2148  35.5209  9.830290
  16540.997  16541.000  0.500  1.281563  19.1509  35.4041  9.828282
  16556.393  16556.360  0.500  1.278662  19.0824  35.2863  9.824046
  16571.902  16571.890  0.500  1.275846  19.0149  35.1682  9.818786
  16587.597  16587.590  0.500  1.272597  18.9474  35.0445  9.816084
  16603.504  16603.460  0.500  1.269702  18.8719  34.9132  9.807649
  16619.538  16619.510  0.500  1.266852  18.8028  34.7924  9.801626
  16635.736  16635.720  0.500  1.263627  18.7366  34.6728  9.799469
  16652.161  16652.110  0.500  1.260528  18.6518  34.523  9.787429
  16668.691  16668.670  0.500  1.257529  18.5859  34.4034  9.782815
  16685.438  16685.400  0.500  1.254615  18.4952  34.2465  9.766601
  16702.328  16702.300  0.500  1.251518  18.3939  34.0625  9.744270
  16713.681  16713.660  0.500  1.249807  17.9347  33.2122  9.517283