File: xdidata/Pb/Pb-L3-Cerrusite.xdi
# XDI/1.0 BlueSky/1.10.0 BMM/2023-1.0-py310-tiled
# Beamline.name: BMM (06BM) -- Beamline for Materials Measurement (NIST)
# Beamline.xray_source: NSLS-II three-pole wiggler
# Beamline.collimation: paraboloid mirror, 5 nm Rh on 30 nm Pt
# Beamline.focusing: not in use
# Beamline.harmonic_rejection: flat mirror, Pt stripe, pitch = 7.0 mrad relative to beam
# Beamline.software: Bluesky 1.10.0, Ophyd 1.7.0, DataBroker 2.0.0b13, Python 3.10.8, 2023-1.0-py310-tiled
# Detector.I0: 10 cm N2
# Detector.I1: 25 cm N2
# Detector.I2: 25 cm N2
# Element.symbol: Pb
# Element.edge: L3
# Element.reference: Pb
# Element.reference_material: Pb foil
# Facility.name: NSLS-II
# Facility.energy: 3.0
# Facility.current: 399.7
# Facility.mode: top-off
# Facility.GUP: 301027
# Facility.SAF: 310583
# Facility.cycle: 2023-2
# Mono.name: Si(111)
# Mono.d_spacing: 3.13519
# Mono.encoder_resolution: 0.0000050 deg/ct
# Mono.angle_offset: 16.0754 deg
# Mono.scan_mode: pseudo channel cut
# Mono.scan_type: step
# Mono.direction: forward in energy
# Sample.name: PbCO3
# Sample.prep: powder on tape
# Sample.x: 143.785 mm
# Sample.y: 114.695 mm
# Sample.SDD_position: 205.000 mm
# Scan.experimenters: Bruce Ravel
# Scan.edge_energy: 13035.2
# Scan.start_time: 2023-06-23T17:15:48
# Scan.end_time: 2023-06-23T17:23:38
# Scan.transient_id: 84892
# Scan.uid: aaba488b-4abf-4de7-b656-7c3376169d93
# Scan.plot_hint: ln(I0/It)  --  ln($5/$6)
# Column.1: energy eV
# Column.2: requested_energy eV
# Column.3: measurement_time seconds
# Column.4: xmu
# Column.5: I0 nA
# Column.6: It nA
# Column.7: Ir nA
# ///////////
# BMM standards collection
# -----------
# energy  requested_energy  measurement_time  xmu  I0  It  Ir
  12835.168  12835.200  0.500  -0.080059  49.9743  54.1398  24.2091
  12865.225  12865.200  0.500  -0.083959  49.6438  53.9918  24.2639
  12895.258  12895.200  0.500  -0.087813  49.2947  53.8192  24.3099
  12925.207  12925.200  0.500  -0.091621  48.9212  53.6152  24.3343
  12955.261  12955.200  0.500  -0.095182  48.3623  53.1917  24.2378
  12985.250  12985.200  0.500  -0.097969  48.2661  53.2341  24.3146
  13007.205  13007.200  0.500  -0.098612  48.0197  52.9964  24.142
  13013.171  13013.200  0.500  -0.098042  47.9484  52.8875  24.0238
  13019.224  13019.200  0.500  -0.096762  47.8715  52.7352  23.8235
  13025.194  13025.200  0.500  -0.094034  47.8043  52.5176  23.4588
  13026.052  13026.100  0.500  -0.093504  47.7896  52.4736  23.378
  13026.970  13027.000  0.500  -0.092664  47.7803  52.4194  23.2799
  13027.866  13027.900  0.500  -0.091985  47.9028  52.5181  23.2345
  13028.755  13028.800  0.500  -0.091071  47.8904  52.4565  23.1074
  13029.658  13029.700  0.500  -0.089878  47.8803  52.383  22.9551
  13030.569  13030.600  0.500  -0.088735  47.8649  52.3063  22.7676
  13031.480  13031.500  0.500  -0.087191  47.8529  52.2125  22.5308
  13032.384  13032.400  0.500  -0.085278  47.8421  52.101  22.2392
  13033.318  13033.300  0.500  -0.083163  47.824  51.9712  21.8692
  13034.177  13034.200  0.500  -0.080639  47.8119  51.8271  21.43
  13035.096  13035.100  0.500  -0.077385  47.802  51.648  20.8995
  13035.971  13036.000  0.500  -0.073686  47.7895  51.4439  20.3258
  13036.876  13036.900  0.500  -0.068952  47.7794  51.1901  19.6817
  13037.802  13037.800  0.500  -0.063038  47.7653  50.8733  18.9975
  13038.692  13038.700  0.500  -0.055990  47.7509  50.5008  18.3081
  13039.590  13039.600  0.500  -0.047399  47.735  50.0521  17.5759
  13040.517  13040.500  0.500  -0.036325  47.7293  49.495  16.7433
  13041.385  13041.400  0.500  -0.023701  47.7131  48.8575  15.8768
  13042.283  13042.300  0.500  -0.007958  47.7027  48.0839  14.9487
  13043.203  13043.200  0.500  0.011927  47.6888  47.1234  13.9798
  13044.101  13044.100  0.500  0.035573  47.6746  46.0085  13.0551
  13044.999  13045.000  0.500  0.061738  47.6588  44.8054  12.2085
  13045.905  13045.900  0.500  0.089363  47.6481  43.5748  11.4422
  13046.804  13046.800  0.500  0.114388  47.6296  42.4814  10.8128
  13047.687  13047.700  0.500  0.136838  47.5956  41.5086  10.3
  13048.578  13048.600  0.500  0.156606  47.54  40.6486  9.899073
  13049.507  13049.500  0.500  0.173743  47.5152  39.9371  9.618685
  13050.391  13050.400  0.500  0.187910  47.5335  39.3905  9.442276
  13051.320  13051.300  0.500  0.200457  47.5559  38.9177  9.322744
  13052.204  13052.200  0.500  0.210784  47.5577  38.5193  9.241043
  13053.111  13053.100  0.500  0.218873  47.5452  38.199  9.181568
  13054.003  13054.000  0.500  0.223682  47.5348  38.0074  9.144004
  13054.880  13054.900  0.500  0.224472  47.5212  37.9665  9.127290
  13055.795  13055.800  0.500  0.221764  47.5116  38.0618  9.124211
  13056.710  13056.700  0.500  0.216154  47.5018  38.268  9.126826
  13057.617  13057.600  0.500  0.208797  47.483  38.5353  9.116877
  13058.510  13058.500  0.500  0.201110  47.4738  38.8251  9.090063
  13059.410  13059.400  0.500  0.193445  47.4616  39.1139  9.040563
  13060.198  13060.200  0.500  0.187019  47.4509  39.3571  8.986497
  13063.220  13063.210  0.500  0.167725  47.411  40.0901  8.864561
  13066.430  13066.400  0.500  0.156810  47.3794  40.5031  8.997011
  13069.760  13069.760  0.500  0.159831  47.3334  40.3417  9.106304
  13073.316  13073.280  0.500  0.175394  47.2401  39.6404  8.972579
  13076.970  13076.980  0.500  0.188351  47.2308  39.1225  8.846664
  13080.881  13080.850  0.500  0.192160  47.2023  38.9502  8.773173
  13084.913  13084.900  0.500  0.196464  47.1589  38.7472  8.613558
  13089.112  13089.110  0.500  0.201871  47.1076  38.4964  8.478007
  13093.509  13093.490  0.500  0.198332  46.9845  38.5319  8.537288
  13098.058  13098.050  0.500  0.187900  47.0013  38.9499  8.708781
  13102.798  13102.780  0.500  0.179720  46.9297  39.21  8.822603
  13107.683  13107.680  0.500  0.177398  46.8688  39.2501  8.852806
  13112.767  13112.750  0.500  0.178119  46.8314  39.1906  8.803948
  13118.013  13117.990  0.500  0.180412  46.6932  38.9854  8.709784
  13123.406  13123.410  0.500  0.181797  46.7049  38.9412  8.705103
  13128.984  13128.990  0.500  0.181809  46.6433  38.8893  8.743086
  13134.763  13134.750  0.500  0.182360  46.5658  38.8034  8.761431
  13140.697  13140.680  0.500  0.182929  46.5015  38.7277  8.758078
  13146.750  13146.780  0.500  0.181156  46.4292  38.7361  8.766990
  13153.027  13153.050  0.500  0.177802  46.342  38.7933  8.786490
  13159.477  13159.490  0.500  0.175582  46.281  38.8283  8.801658
  13166.076  13166.100  0.500  0.174461  46.199  38.803  8.809316
  13172.948  13172.890  0.500  0.173141  46.266  38.9106  8.850433
  13179.910  13179.850  0.500  0.172229  46.1842  38.8772  8.855999
  13187.016  13186.970  0.500  0.171521  46.0982  38.8323  8.858721
  13194.297  13194.270  0.500  0.171173  46.017  38.7774  8.866376
  13201.791  13201.750  0.500  0.170605  45.925  38.7218  8.874699
  13209.401  13209.390  0.500  0.169992  45.8335  38.6684  8.881180
  13217.233  13217.200  0.500  0.168363  45.7374  38.6503  8.888371
  13225.204  13225.190  0.500  0.166382  45.6179  38.6257  8.892230
  13233.384  13233.350  0.500  0.164913  45.5395  38.6161  8.898302
  13241.666  13241.670  0.500  0.164027  45.4336  38.5604  8.895724
  13250.180  13250.170  0.500  0.163156  45.3172  38.4951  8.898955
  13258.866  13258.850  0.500  0.162005  45.1808  38.4234  8.902492
  13267.695  13267.690  0.500  0.160761  44.9811  38.3012  8.890146
  13276.705  13276.700  0.500  0.159741  44.368  37.8177  8.790854
  13285.881  13285.890  0.500  0.158880  44.2711  37.7676  8.792878
  13295.255  13295.250  0.500  0.157711  44.1784  37.7326  8.798135
  13304.766  13304.770  0.500  0.156002  44.0145  37.6569  8.799923
  13314.477  13314.470  0.500  0.154198  43.9732  37.6895  8.829351
  13324.365  13324.350  0.500  0.152720  43.8487  37.6384  8.840390
  13334.415  13334.390  0.500  0.151192  43.7426  37.6048  8.853642
  13344.612  13344.600  0.500  0.149848  43.6764  37.5984  8.870144
  13355.012  13354.990  0.500  0.148409  43.5876  37.576  8.889016
  13365.577  13365.550  0.500  0.146603  43.4634  37.5366  8.901248
  13376.284  13376.280  0.500  0.145045  43.3363  37.4852  8.911753
  13387.188  13387.180  0.500  0.143348  43.222  37.4498  8.929903
  13398.258  13398.250  0.500  0.141666  43.1143  37.4193  8.945515
  13409.520  13409.490  0.500  0.139936  43.0139  37.3969  8.965593
  13420.943  13420.910  0.500  0.138182  42.8949  37.3589  8.982026
  13432.511  13432.490  0.500  0.136242  42.7606  37.3142  8.995498
  13444.265  13444.250  0.500  0.134486  42.638  37.2726  9.011646
  13456.222  13456.180  0.500  0.132666  42.5111  37.2294  9.030963
  13468.319  13468.280  0.500  0.130820  42.3802  37.1834  9.047647
  13480.581  13480.550  0.500  0.128890  42.1433  37.0469  9.041376
  13493.017  13492.990  0.500  0.127025  42.1031  37.0806  9.076986
  13505.635  13505.610  0.500  0.125249  42.0136  37.0676  9.102345
  13518.428  13518.390  0.500  0.123260  41.8647  37.0099  9.114725
  13531.382  13531.350  0.500  0.121353  41.7128  36.9459  9.126117
  13544.498  13544.480  0.500  0.119436  41.6268  36.9405  9.154867
  13557.783  13557.780  0.500  0.117304  40.8114  36.2942  9.024066
  13571.272  13571.250  0.500  0.115346  41.3309  36.8282  9.187803
  13584.908  13584.900  0.500  0.113367  41.2096  36.7928  9.208960
  13598.742  13598.710  0.500  0.111270  41.0865  36.76  9.232121
  13612.743  13612.700  0.500  0.109138  40.9113  36.6813  9.244319
  13626.853  13626.860  0.500  0.107112  40.7994  36.6552  9.268500
  13641.212  13641.190  0.500  0.104980  40.6464  36.5957  9.285858
  13655.724  13655.690  0.500  0.102837  40.5065  36.548  9.308554
  13670.390  13670.360  0.500  0.100499  40.3511  36.493  9.329013
  13685.219  13685.200  0.500  0.098374  40.1882  36.423  9.346041
  13700.268  13700.220  0.500  0.096057  40.0401  36.3729  9.366623
  13715.450  13715.400  0.500  0.093995  39.896  36.3168  9.387402
  13730.797  13730.760  0.500  0.091608  39.7388  36.2602  9.405307
  13746.303  13746.290  0.500  0.089336  39.5795  36.197  9.424038
  13762.027  13761.990  0.500  0.087061  39.4115  36.1254  9.442075
  13777.936  13777.860  0.500  0.084703  39.246  36.0586  9.459391
  13793.874  13793.910  0.500  0.082364  39.1639  36.0675  9.498913
  13810.115  13810.120  0.500  0.079939  39.001  36.0046  9.520000
  13826.513  13826.510  0.500  0.077660  38.8259  35.9248  9.535704
  13843.125  13843.070  0.500  0.075258  38.6528  35.8506  9.553574
  13859.820  13859.800  0.500  0.072868  38.4617  35.7587  9.569820
  13876.733  13876.700  0.500  0.070435  38.2139  35.615  9.568727
  13888.090  13888.060  0.500  0.068827  37.9142  35.3925  9.534914