File: xdidata/Pb/Pb-L1-Galena.xdi
# XDI/1.0 BlueSky/1.10.0 BMM/2023-1.0-py310-tiled
# Beamline.name: BMM (06BM) -- Beamline for Materials Measurement (NIST)
# Beamline.xray_source: NSLS-II three-pole wiggler
# Beamline.collimation: paraboloid mirror, 5 nm Rh on 30 nm Pt
# Beamline.focusing: not in use
# Beamline.harmonic_rejection: flat mirror, Pt stripe, pitch = 7.0 mrad relative to beam
# Beamline.software: Bluesky 1.10.0, Ophyd 1.7.0, DataBroker 2.0.0b13, Python 3.10.8, 2023-1.0-py310-tiled
# Detector.I0: 10 cm N2
# Detector.I1: 25 cm N2
# Detector.I2: 25 cm N2
# Element.symbol: Pb
# Element.edge: L1
# Element.reference: Pb
# Element.reference_material: Pb foil
# Facility.name: NSLS-II
# Facility.energy: 3.0
# Facility.current: 399.2
# Facility.mode: top-off
# Facility.GUP: 301027
# Facility.SAF: 310583
# Facility.cycle: 2023-2
# Mono.name: Si(111)
# Mono.d_spacing: 3.13519
# Mono.encoder_resolution: 0.0000050 deg/ct
# Mono.angle_offset: 16.0754 deg
# Mono.scan_mode: pseudo channel cut
# Mono.scan_type: step
# Mono.direction: forward in energy
# Sample.name: PbS2
# Sample.prep: powder on tape
# Sample.x: 143.785 mm
# Sample.y: 114.695 mm
# Sample.SDD_position: 205.000 mm
# Scan.experimenters: Bruce Ravel
# Scan.edge_energy: 15860.8
# Scan.start_time: 2023-06-23T18:12:36
# Scan.end_time: 2023-06-23T18:21:04
# Scan.transient_id: 84926
# Scan.uid: c3effb82-334f-41ff-9cca-50278b76da4f
# Scan.plot_hint: ln(I0/It)  --  ln($5/$6)
# Column.1: energy eV
# Column.2: requested_energy eV
# Column.3: measurement_time seconds
# Column.4: xmu
# Column.5: I0 nA
# Column.6: It nA
# Column.7: Ir nA
# ///////////
# BMM standards collection
# -----------
# energy  requested_energy  measurement_time  xmu  I0  It  Ir
  15660.752  15660.800  0.500  0.335755  24.7117  17.6639  4.935482
  15690.865  15690.800  0.500  0.331709  24.538  17.6108  4.948700
  15720.900  15720.800  0.500  0.327558  24.3549  17.5521  4.957226
  15750.856  15750.800  0.500  0.323521  24.1681  17.4879  4.963090
  15780.851  15780.800  0.500  0.320260  24.0072  17.4283  4.965643
  15810.742  15810.800  0.500  0.318040  23.8291  17.3374  4.951753
  15832.730  15832.800  0.500  0.319716  23.7901  17.2801  4.920778
  15838.715  15838.800  0.500  0.322005  23.7638  17.2215  4.889931
  15844.726  15844.800  0.500  0.326602  23.721  17.1117  4.827611
  15850.720  15850.800  0.500  0.337443  23.6749  16.8943  4.697436
  15851.611  15851.700  0.500  0.340218  23.6654  16.8407  4.667372
  15852.535  15852.600  0.500  0.343330  23.6591  16.7838  4.631555
  15853.460  15853.500  0.500  0.347089  23.6581  16.7202  4.591492
  15854.362  15854.400  0.500  0.351300  23.6576  16.6495  4.546472
  15855.276  15855.300  0.500  0.356355  23.6571  16.5653  4.491815
  15856.168  15856.200  0.500  0.362414  23.6539  16.463  4.429955
  15857.059  15857.100  0.500  0.369336  23.6393  16.3393  4.354668
  15857.962  15858.000  0.500  0.377599  23.6366  16.203  4.272370
  15858.854  15858.900  0.500  0.386934  23.6296  16.0477  4.181015
  15859.758  15859.800  0.500  0.397133  23.6239  15.8811  4.083554
  15860.661  15860.700  0.500  0.407626  23.6221  15.7141  3.985739
  15861.553  15861.600  0.500  0.418044  23.6165  15.5475  3.892783
  15862.457  15862.500  0.500  0.426566  23.6112  15.4122  3.817406
  15863.371  15863.400  0.500  0.432834  23.6034  15.3108  3.759166
  15864.286  15864.300  0.500  0.436414  23.5943  15.2502  3.723308
  15865.201  15865.200  0.500  0.437138  23.5912  15.2371  3.710685
  15866.093  15866.100  0.500  0.435865  23.5873  15.254  3.713667
  15866.986  15867.000  0.500  0.433068  23.5789  15.2913  3.730769
  15867.879  15867.900  0.500  0.429322  23.5717  15.344  3.755688
  15868.784  15868.800  0.500  0.425485  23.565  15.3986  3.781888
  15869.699  15869.700  0.500  0.421642  23.5567  15.4525  3.808204
  15870.581  15870.600  0.500  0.418460  23.5516  15.4984  3.829654
  15871.508  15871.500  0.500  0.415925  23.5471  15.5348  3.849461
  15872.412  15872.400  0.500  0.413879  23.5381  15.5606  3.862058
  15873.317  15873.300  0.500  0.412151  23.5298  15.582  3.869846
  15874.211  15874.200  0.500  0.410932  23.5236  15.5969  3.875986
  15875.105  15875.100  0.500  0.409998  23.5214  15.61  3.877218
  15876.010  15876.000  0.500  0.409008  23.5113  15.6187  3.878325
  15876.904  15876.900  0.500  0.408354  23.5104  15.6284  3.877460
  15877.798  15877.800  0.500  0.407510  23.5023  15.6362  3.876114
  15878.692  15878.700  0.500  0.407087  23.504  15.644  3.875506
  15879.587  15879.600  0.500  0.406333  23.4908  15.6469  3.874653
  15880.481  15880.500  0.500  0.405662  23.489  15.6562  3.876316
  15881.387  15881.400  0.500  0.405264  23.4789  15.6558  3.877981
  15882.303  15882.300  0.500  0.404900  23.4792  15.6617  3.881428
  15883.198  15883.200  0.500  0.404495  23.4652  15.6587  3.882885
  15884.115  15884.100  0.500  0.404527  23.4579  15.6533  3.886458
  15885.021  15885.000  0.500  0.404871  23.455  15.6459  3.890693
  15885.839  15885.800  0.500  0.405459  23.451  15.6341  3.891234
  15888.834  15888.810  0.500  0.406858  23.4318  15.5994  3.893331
  15892.008  15892.000  0.500  0.407839  23.4119  15.5709  3.889863
  15895.393  15895.360  0.500  0.407579  23.3859  15.5577  3.880745
  15898.890  15898.880  0.500  0.407768  23.3675  15.5425  3.867574
  15902.577  15902.580  0.500  0.408861  23.345  15.5106  3.854505
  15906.476  15906.450  0.500  0.408192  23.3089  15.497  3.855058
  15910.510  15910.500  0.500  0.405499  23.2234  15.4817  3.862365
  15914.724  15914.710  0.500  0.402744  23.2397  15.5354  3.888646
  15919.129  15919.090  0.500  0.401062  23.2484  15.5673  3.898713
  15923.658  15923.650  0.500  0.400277  23.2188  15.5597  3.895837
  15928.401  15928.380  0.500  0.401076  23.1918  15.5292  3.886878
  15933.324  15933.280  0.500  0.402391  23.1559  15.4848  3.877738
  15938.284  15938.350  0.500  0.402507  23.1222  15.4605  3.879389
  15943.604  15943.590  0.500  0.400976  23.0837  15.4583  3.885529
  15948.960  15949.010  0.500  0.399421  22.9131  15.368  3.868927
  15955.168  15954.590  0.500  0.398014  23.0234  15.4637  3.897533
  15960.231  15960.350  0.500  0.396585  23.0546  15.5068  3.911430
  15966.424  15966.280  0.500  0.395159  23.0134  15.5012  3.913935
  15972.321  15972.380  0.500  0.393985  22.9699  15.4901  3.916665
  15978.592  15978.650  0.500  0.393522  22.938  15.4757  3.918180
  15985.024  15985.090  0.500  0.392871  22.7366  15.3498  3.893019
  15991.662  15991.700  0.500  0.392564  22.8691  15.444  3.922232
  15998.441  15998.490  0.500  0.391426  22.8307  15.4356  3.925828
  16005.405  16005.450  0.500  0.389820  22.7843  15.429  3.930627
  16012.544  16012.570  0.500  0.388297  22.7435  15.4248  3.936155
  16019.880  16019.870  0.500  0.387003  22.6865  15.4061  3.938365
  16027.336  16027.350  0.500  0.385651  22.5566  15.3387  3.927160
  16035.012  16034.990  0.500  0.384282  22.6168  15.4007  3.948224
  16042.820  16042.800  0.500  0.383173  22.5784  15.3916  3.951385
  16050.782  16050.790  0.500  0.382326  22.5294  15.3712  3.952044
  16058.956  16058.950  0.500  0.381345  22.4756  15.3496  3.953615
  16067.251  16067.270  0.500  0.380144  22.4309  15.3374  3.958732
  16075.769  16075.770  0.500  0.378580  22.3334  15.2947  3.953483
  16084.490  16084.450  0.500  0.377060  22.3268  15.3134  3.965070
  16093.277  16093.290  0.500  0.375727  22.2789  15.3009  3.968661
  16102.323  16102.300  0.500  0.374551  22.2197  15.2782  3.969526
  16111.493  16111.490  0.500  0.372813  22.1741  15.2734  3.976262
  16120.856  16120.850  0.500  0.371543  22.1108  15.2491  3.976935
  16130.377  16130.370  0.500  0.370012  22.0635  15.2399  3.983696
  16140.048  16140.070  0.500  0.368598  22.0095  15.224  3.987104
  16149.935  16149.950  0.500  0.366951  21.9515  15.209  3.991808
  16159.984  16159.990  0.500  0.365383  21.8865  15.1877  3.994614
  16170.228  16170.200  0.500  0.363827  21.8407  15.1795  4.000132
  16180.623  16180.590  0.500  0.361992  21.7801  15.1652  4.005127
  16191.158  16191.150  0.500  0.360238  21.7182  15.1486  4.009284
  16201.902  16201.880  0.500  0.358669  21.6541  15.1277  4.012633
  16212.764  16212.780  0.500  0.357136  21.5954  15.1098  4.015787
  16223.848  16223.850  0.500  0.355407  21.5364  15.0946  4.022348
  16235.098  16235.090  0.500  0.353568  21.4274  15.0458  4.017580
  16246.502  16246.510  0.500  0.351969  21.4068  15.0555  4.031041
  16258.119  16258.090  0.500  0.349933  21.3342  15.0349  4.032303
  16269.869  16269.850  0.500  0.348333  21.2691  15.0131  4.037417
  16281.798  16281.780  0.500  0.346519  21.2116  14.9997  4.043547
  16293.897  16293.880  0.500  0.344565  21.1427  14.9802  4.046960
  16306.176  16306.150  0.500  0.342767  21.0215  14.9211  4.040344
  16318.626  16318.590  0.500  0.340759  21.0007  14.9363  4.054807
  16331.236  16331.210  0.500  0.339002  20.9301  14.9123  4.058877
  16344.028  16343.990  0.500  0.336981  20.8648  14.8959  4.063601
  16356.970  16356.950  0.500  0.335013  20.7874  14.8699  4.066960
  16370.097  16370.080  0.500  0.333092  20.697  14.8337  4.067009
  16383.375  16383.380  0.500  0.331400  20.6885  14.8526  4.083584
  16396.874  16396.850  0.500  0.329203  20.6251  14.8397  4.090221
  16410.526  16410.500  0.500  0.327229  20.5427  14.8096  4.093369
  16424.354  16424.310  0.500  0.325089  20.4742  14.7919  4.098325
  16438.325  16438.300  0.500  0.323058  20.3901  14.7611  4.101511
  16452.497  16452.460  0.500  0.321099  20.3283  14.7451  4.107963
  16466.800  16466.790  0.500  0.318920  20.2462  14.7176  4.111456
  16481.331  16481.290  0.500  0.316831  20.1546  14.6817  4.112205
  16495.996  16495.960  0.500  0.314566  20.0822  14.6622  4.119338
  16510.817  16510.800  0.500  0.312490  19.9958  14.6294  4.121711
  16525.822  16525.820  0.500  0.310447  19.9227  14.6057  4.126840
  16541.009  16541.000  0.500  0.308253  19.8487  14.5834  4.132441
  16556.393  16556.360  0.500  0.306117  19.7608  14.5499  4.135253
  16571.938  16571.890  0.500  0.303644  19.6737  14.5216  4.137490
  16587.585  16587.590  0.500  0.301513  19.5871  14.4885  4.141318
  16603.492  16603.460  0.500  0.299394  19.5088  14.4612  4.144581
  16619.562  16619.510  0.500  0.297055  19.414  14.4247  4.146571
  16635.760  16635.720  0.500  0.294770  19.3218  14.389  4.148645
  16652.149  16652.110  0.500  0.292416  19.2215  14.348  4.148150
  16668.716  16668.670  0.500  0.290164  19.1408  14.32  4.153745
  16685.462  16685.400  0.500  0.287679  19.0278  14.2709  4.151835
  16702.353  16702.300  0.500  0.285280  18.853  14.1737  4.135660
  16713.657  16713.660  0.500  0.283672  18.0929  13.6242  3.980467