File: xdidata/Pb/Pb-L1-LeadChloride.xdi
# XDI/1.0 BlueSky/1.10.0 BMM/2023-1.0-py310-tiled
# Beamline.name: BMM (06BM) -- Beamline for Materials Measurement (NIST)
# Beamline.xray_source: NSLS-II three-pole wiggler
# Beamline.collimation: paraboloid mirror, 5 nm Rh on 30 nm Pt
# Beamline.focusing: not in use
# Beamline.harmonic_rejection: flat mirror, Pt stripe, pitch = 7.0 mrad relative to beam
# Beamline.software: Bluesky 1.10.0, Ophyd 1.7.0, DataBroker 2.0.0b13, Python 3.10.8, 2023-1.0-py310-tiled
# Detector.I0: 10 cm N2
# Detector.I1: 25 cm N2
# Detector.I2: 25 cm N2
# Element.symbol: Pb
# Element.edge: L1
# Element.reference: Pb
# Element.reference_material: Pb foil
# Facility.name: NSLS-II
# Facility.energy: 3.0
# Facility.current: 399.0
# Facility.mode: top-off
# Facility.GUP: 301027
# Facility.SAF: 310583
# Facility.cycle: 2023-2
# Mono.name: Si(111)
# Mono.d_spacing: 3.13519
# Mono.encoder_resolution: 0.0000050 deg/ct
# Mono.angle_offset: 16.0754 deg
# Mono.scan_mode: pseudo channel cut
# Mono.scan_type: step
# Mono.direction: forward in energy
# Sample.name: PbCl
# Sample.prep: powder on tape
# Sample.x: 143.785 mm
# Sample.y: 114.695 mm
# Sample.SDD_position: 205.000 mm
# Scan.experimenters: Bruce Ravel
# Scan.edge_energy: 15860.8
# Scan.start_time: 2023-06-23T18:39:18
# Scan.end_time: 2023-06-23T18:47:14
# Scan.transient_id: 84941
# Scan.uid: 1954825a-70fe-498e-bb44-2ed6af995909
# Scan.plot_hint: ln(I0/It)  --  ln($5/$6)
# Column.1: energy eV
# Column.2: requested_energy eV
# Column.3: measurement_time seconds
# Column.4: xmu
# Column.5: I0 nA
# Column.6: It nA
# Column.7: Ir nA
# ///////////
# BMM standards collection
# -----------
# energy  requested_energy  measurement_time  xmu  I0  It  Ir
  15660.849  15660.800  0.500  3.174105  24.7089  1.033611  0.287655
  15690.908  15690.800  0.500  3.159356  24.5374  1.041688  0.291932
  15720.868  15720.800  0.500  3.144626  24.3524  1.049177  0.295367
  15750.802  15750.800  0.500  3.130432  24.1662  1.056038  0.298558
  15780.851  15780.800  0.500  3.118671  23.9988  1.061128  0.301432
  15810.862  15810.800  0.500  3.112736  23.8313  1.059996  0.301505
  15832.807  15832.800  0.500  3.122767  23.7904  1.047614  0.297274
  15838.803  15838.800  0.500  3.134039  23.7575  1.034441  0.292641
  15844.803  15844.800  0.500  3.155998  23.7145  1.010139  0.283828
  15850.808  15850.800  0.500  3.204496  23.6684  0.960449  0.265484
  15851.644  15851.700  0.500  3.216978  23.6531  0.947920  0.261682
  15852.568  15852.600  0.500  3.231646  23.6527  0.934105  0.256773
  15853.471  15853.500  0.500  3.247224  23.6511  0.919600  0.251201
  15854.351  15854.400  0.500  3.266626  23.6509  0.901925  0.245052
  15855.265  15855.300  0.500  3.289907  23.6476  0.881048  0.237942
  15856.168  15856.200  0.500  3.318137  23.6423  0.856331  0.229660
  15857.081  15857.100  0.500  3.349583  23.6323  0.829469  0.219876
  15857.973  15858.000  0.500  3.388214  23.6246  0.797778  0.209218
  15858.898  15858.900  0.500  3.432909  23.6119  0.762494  0.197630
  15859.780  15859.800  0.500  3.481286  23.6078  0.726361  0.185542
  15860.694  15860.700  0.500  3.533689  23.6026  0.689125  0.173628
  15861.586  15861.600  0.500  3.583333  23.6004  0.655689  0.163062
  15862.479  15862.500  0.500  3.627233  23.5944  0.627366  0.154293
  15863.360  15863.400  0.500  3.657984  23.59  0.608255  0.148134
  15864.275  15864.300  0.500  3.675524  23.5793  0.597408  0.144825
  15865.168  15865.200  0.500  3.677394  23.5781  0.596263  0.144173
  15866.082  15866.100  0.500  3.664871  23.5663  0.603472  0.146093
  15867.008  15867.000  0.500  3.641964  23.5632  0.617376  0.150011
  15867.913  15867.900  0.500  3.613275  23.5562  0.635155  0.154734
  15868.828  15868.800  0.500  3.584716  23.5468  0.653295  0.159774
  15869.710  15869.700  0.500  3.560084  23.5381  0.669341  0.163984
  15870.614  15870.600  0.500  3.539083  23.5306  0.683326  0.168243
  15871.475  15871.500  0.500  3.522965  23.5268  0.694319  0.171128
  15872.379  15872.400  0.500  3.511618  23.5223  0.702109  0.173331
  15873.262  15873.300  0.500  3.503317  23.5103  0.707599  0.174768
  15874.189  15874.200  0.500  3.497983  23.5026  0.711151  0.175873
  15875.094  15875.100  0.500  3.495609  23.4994  0.712743  0.176127
  15876.010  15876.000  0.500  3.493832  23.4942  0.713851  0.176256
  15876.926  15876.900  0.500  3.494095  23.4871  0.713451  0.176410
  15877.809  15877.800  0.500  3.494106  23.4873  0.713449  0.175817
  15878.725  15878.700  0.500  3.494672  23.474  0.712641  0.175679
  15879.631  15879.600  0.500  3.495948  23.475  0.711763  0.175367
  15880.514  15880.500  0.500  3.496852  23.4686  0.710926  0.174866
  15881.409  15881.400  0.500  3.497515  23.4673  0.710416  0.174695
  15882.303  15882.300  0.500  3.497658  23.4596  0.710080  0.175137
  15883.187  15883.200  0.500  3.497784  23.4492  0.709674  0.175081
  15884.115  15884.100  0.500  3.497241  23.4429  0.709870  0.175465
  15884.999  15885.000  0.500  3.497014  23.441  0.709973  0.175625
  15885.795  15885.800  0.500  3.495894  23.4364  0.710630  0.175986
  15888.845  15888.810  0.500  3.494923  23.4198  0.710817  0.176609
  15892.019  15892.000  0.500  3.495317  23.4003  0.709945  0.176494
  15895.404  15895.360  0.500  3.499958  23.376  0.705923  0.175142
  15898.912  15898.880  0.500  3.505314  23.3564  0.701563  0.173636
  15902.577  15902.580  0.500  3.505260  23.3295  0.700795  0.173318
  15906.443  15906.450  0.500  3.499553  23.3022  0.703979  0.174246
  15910.533  15910.500  0.500  3.492315  23.2135  0.706396  0.175432
  15914.702  15914.710  0.500  3.483537  23.2247  0.712966  0.177643
  15919.106  15919.090  0.500  3.477461  23.2446  0.717925  0.179015
  15923.669  15923.650  0.500  3.475561  23.2184  0.718482  0.178995
  15928.390  15928.380  0.500  3.476726  23.1804  0.716469  0.178576
  15933.302  15933.280  0.500  3.478860  23.1512  0.714042  0.177677
  15938.351  15938.350  0.500  3.479878  23.1177  0.712283  0.177702
  15943.615  15943.590  0.500  3.477623  23.084  0.712851  0.178499
  15949.005  15949.010  0.500  3.472458  22.9139  0.711261  0.178241
  15954.588  15954.590  0.500  3.465604  23.0268  0.719682  0.180410
  15960.331  15960.350  0.500  3.459337  22.9881  0.722990  0.181429
  15966.302  15966.280  0.500  3.454256  23.036  0.728187  0.182871
  15972.321  15972.380  0.500  3.450441  22.9976  0.729751  0.183584
  15978.648  15978.650  0.500  3.448675  22.9578  0.729776  0.183859
  15985.684  15985.090  0.500  3.446406  22.7219  0.723919  0.182863
  15991.674  15991.700  0.500  3.442955  22.8828  0.731565  0.185032
  15998.486  15998.490  0.500  3.439782  22.8427  0.732604  0.185388
  16005.428  16005.450  0.500  3.434050  22.8013  0.735480  0.186513
  16012.555  16012.570  0.500  3.429409  22.7642  0.737698  0.187231
  16019.880  16019.870  0.500  3.423560  22.712  0.740325  0.188178
  16027.325  16027.350  0.500  3.418947  22.58  0.739425  0.188111
  16035.012  16034.990  0.500  3.413358  22.6438  0.745670  0.189974
  16042.831  16042.800  0.500  3.409974  22.5924  0.746499  0.190621
  16050.771  16050.790  0.500  3.406315  22.5533  0.747938  0.191292
  16058.956  16058.950  0.500  3.401263  22.5026  0.750037  0.192302
  16067.262  16067.270  0.500  3.397495  22.4576  0.751364  0.192934
  16075.781  16075.770  0.500  3.392452  22.3661  0.752085  0.193546
  16084.479  16084.450  0.500  3.388116  22.3615  0.755197  0.194796
  16093.277  16093.290  0.500  3.382263  22.3075  0.757795  0.195560
  16102.323  16102.300  0.500  3.375974  22.2384  0.760216  0.196555
  16111.504  16111.490  0.500  3.371233  22.2049  0.762676  0.197632
  16120.833  16120.850  0.500  3.365474  22.1406  0.764862  0.198573
  16130.366  16130.370  0.500  3.360385  22.0941  0.767148  0.199513
  16140.093  16140.070  0.500  3.353813  22.0434  0.770435  0.200728
  16149.924  16149.950  0.500  3.348591  21.9894  0.772572  0.201812
  16160.006  16159.990  0.500  3.343162  21.9309  0.774712  0.202834
  16170.205  16170.200  0.500  3.336397  21.8723  0.777886  0.203968
  16180.600  16180.590  0.500  3.330698  21.8134  0.780225  0.204962
  16191.146  16191.150  0.500  3.324676  21.7523  0.782740  0.206260
  16201.879  16201.880  0.500  3.318484  21.6909  0.785379  0.207438
  16212.787  16212.780  0.500  3.311324  21.6352  0.788990  0.208894
  16223.859  16223.850  0.500  3.305342  21.5748  0.791506  0.209810
  16235.063  16235.090  0.500  3.298300  21.4701  0.793232  0.210620
  16246.525  16246.510  0.500  3.292083  21.4434  0.797188  0.212478
  16258.107  16258.090  0.500  3.285306  21.3731  0.799975  0.213708
  16269.846  16269.850  0.500  3.278432  21.3156  0.803329  0.214915
  16281.775  16281.780  0.500  3.271828  21.2471  0.806050  0.216221
  16293.920  16293.880  0.500  3.264359  21.1777  0.809443  0.217462
  16306.153  16306.150  0.500  3.257602  21.0632  0.810525  0.218487
  16318.615  16318.590  0.500  3.251284  21.0458  0.814987  0.220513
  16331.259  16331.210  0.500  3.243504  20.9783  0.818719  0.221870
  16343.970  16343.990  0.500  3.237117  20.898  0.820810  0.223063
  16356.947  16356.950  0.500  3.229481  20.8368  0.824679  0.224285
  16370.133  16370.080  0.500  3.221948  20.7431  0.827180  0.225810
  16383.387  16383.380  0.500  3.214710  20.6913  0.831107  0.227487
  16396.827  16396.850  0.500  3.206691  20.5984  0.834037  0.229125
  16410.538  16410.500  0.500  3.198870  20.5405  0.838224  0.230824
  16424.354  16424.310  0.500  3.191911  20.4593  0.840738  0.232039
  16438.325  16438.300  0.500  3.184187  20.3636  0.843295  0.233559
  16452.473  16452.460  0.500  3.176492  20.313  0.847696  0.235357
  16466.800  16466.790  0.500  3.168223  20.2295  0.851222  0.236622
  16481.296  16481.290  0.500  3.160098  20.1567  0.855081  0.238656
  16496.031  16495.960  0.500  3.152120  20.1525  0.861748  0.241094
  16510.829  16510.800  0.500  3.143556  20.0741  0.865777  0.242752
  16525.858  16525.820  0.500  3.135905  19.9843  0.868525  0.244367
  16540.997  16541.000  0.500  3.127079  19.9089  0.872918  0.246121
  16556.381  16556.360  0.500  3.119489  19.8151  0.875425  0.247690
  16571.926  16571.890  0.500  3.110965  19.7431  0.879710  0.249562
  16587.634  16587.590  0.500  3.102490  19.6573  0.883344  0.251536
  16603.516  16603.460  0.500  3.094118  19.5649  0.886582  0.253166
  16619.586  16619.510  0.500  3.085946  19.4738  0.889695  0.254839
  16635.760  16635.720  0.500  3.076661  19.3888  0.894074  0.256630
  16652.124  16652.110  0.500  3.068635  19.2968  0.897005  0.258327
  16668.667  16668.670  0.500  3.059638  19.2066  0.900878  0.260043
  16685.426  16685.400  0.500  3.050501  19.1  0.904103  0.261728
  16702.365  16702.300  0.500  3.041897  18.9444  0.904488  0.262857
  16713.706  16713.660  0.500  3.035792  18.199  0.874219  0.254277