File: xdidata/Pb/Pb-L3-LeadDioxide.xdi
# XDI/1.0 BlueSky/1.10.0 BMM/2023-1.0-py310-tiled
# Beamline.name: BMM (06BM) -- Beamline for Materials Measurement (NIST)
# Beamline.xray_source: NSLS-II three-pole wiggler
# Beamline.collimation: paraboloid mirror, 5 nm Rh on 30 nm Pt
# Beamline.focusing: not in use
# Beamline.harmonic_rejection: flat mirror, Pt stripe, pitch = 7.0 mrad relative to beam
# Beamline.software: Bluesky 1.10.0, Ophyd 1.7.0, DataBroker 2.0.0b13, Python 3.10.8, 2023-1.0-py310-tiled
# Detector.I0: 10 cm N2
# Detector.I1: 25 cm N2
# Detector.I2: 25 cm N2
# Element.symbol: Pb
# Element.edge: L3
# Element.reference: Pb
# Element.reference_material: Pb foil
# Facility.name: NSLS-II
# Facility.energy: 3.0
# Facility.current: 400.7
# Facility.mode: top-off
# Facility.GUP: 301027
# Facility.SAF: 310583
# Facility.cycle: 2023-2
# Mono.name: Si(111)
# Mono.d_spacing: 3.13519
# Mono.encoder_resolution: 0.0000050 deg/ct
# Mono.angle_offset: 16.0754 deg
# Mono.scan_mode: pseudo channel cut
# Mono.scan_type: step
# Mono.direction: forward in energy
# Sample.name: PbO2
# Sample.prep: powder in PEG pellet
# Sample.x: 143.785 mm
# Sample.y: 114.695 mm
# Sample.SDD_position: 205.000 mm
# Scan.experimenters: Bruce Ravel
# Scan.edge_energy: 13035.2
# Scan.start_time: 2023-06-23T16:50:03
# Scan.end_time: 2023-06-23T16:58:06
# Scan.transient_id: 84877
# Scan.uid: 863f7c54-7f7a-4c38-b9fa-66488bd74ece
# Scan.plot_hint: ln(I0/It)  --  ln($5/$6)
# Column.1: energy eV
# Column.2: requested_energy eV
# Column.3: measurement_time seconds
# Column.4: xmu
# Column.5: I0 nA
# Column.6: It nA
# Column.7: Ir nA
# ///////////
# BMM standards collection
# -----------
# energy  requested_energy  measurement_time  xmu  I0  It  Ir
  12835.075  12835.200  0.500  0.242681  50.1484  39.3425  17.5718
  12865.225  12865.200  0.500  0.237185  49.8066  39.2897  17.6402
  12895.287  12895.200  0.500  0.231928  49.4505  39.2144  17.6962
  12925.243  12925.200  0.500  0.226717  49.0767  39.1213  17.7363
  12955.187  12955.200  0.500  0.221992  48.5  38.8447  17.6824
  12985.221  12985.200  0.500  0.219004  48.3965  38.8778  17.7407
  13007.169  13007.200  0.500  0.220165  48.1361  38.6238  17.5762
  13013.149  13013.200  0.500  0.222340  48.0653  38.4831  17.4653
  13019.150  13019.200  0.500  0.226584  47.9943  38.2636  17.2705
  13025.157  13025.200  0.500  0.235906  47.9234  37.8525  16.8905
  13026.030  13026.100  0.500  0.238222  47.9075  37.7524  16.799
  13026.948  13027.000  0.500  0.241154  47.8969  37.6335  16.6911
  13027.859  13027.900  0.500  0.244419  47.8844  37.5011  16.5727
  13028.762  13028.800  0.500  0.248789  47.8723  37.3282  16.4222
  13029.643  13029.700  0.500  0.254147  47.8548  37.1151  16.2413
  13030.554  13030.600  0.500  0.260986  47.8454  36.8549  16.0155
  13031.488  13031.500  0.500  0.270400  47.8239  36.4932  15.7214
  13032.399  13032.400  0.500  0.282862  47.8163  36.0355  15.3525
  13033.288  13033.300  0.500  0.298532  47.8056  35.4673  14.8956
  13034.185  13034.200  0.500  0.317104  47.7854  34.8  14.3521
  13035.082  13035.100  0.500  0.335843  47.7741  34.1458  13.7869
  13035.979  13036.000  0.500  0.351150  47.7609  33.6178  13.2435
  13036.890  13036.900  0.500  0.361070  47.7457  33.2754  12.7506
  13037.780  13037.800  0.500  0.365024  47.7346  33.1364  12.3459
  13038.692  13038.700  0.500  0.366526  47.7205  33.0769  11.9489
  13039.590  13039.600  0.500  0.369448  47.7094  32.9727  11.5364
  13040.502  13040.500  0.500  0.376838  47.693  32.7187  11.028
  13041.400  13041.400  0.500  0.389956  47.6771  32.2816  10.4466
  13042.275  13042.300  0.500  0.408657  47.6654  31.6756  9.808378
  13043.181  13043.200  0.500  0.435203  47.6525  30.8375  9.112834
  13044.079  13044.100  0.500  0.468045  47.6376  29.8319  8.433284
  13044.999  13045.000  0.500  0.507950  47.621  28.6549  7.774349
  13045.890  13045.900  0.500  0.548051  47.6051  27.5193  7.204718
  13046.826  13046.800  0.500  0.586044  47.5958  26.4882  6.716246
  13047.687  13047.700  0.500  0.613993  47.5519  25.7344  6.367628
  13048.586  13048.600  0.500  0.634718  47.5001  25.1791  6.117958
  13049.485  13049.500  0.500  0.649315  47.4769  24.8021  5.965434
  13050.406  13050.400  0.500  0.662307  47.4961  24.4919  5.862825
  13051.298  13051.300  0.500  0.675452  47.5164  24.1824  5.785564
  13052.227  13052.200  0.500  0.690542  47.5054  23.8147  5.706987
  13053.096  13053.100  0.500  0.707845  47.4983  23.4027  5.616637
  13053.996  13054.000  0.500  0.727673  47.4887  22.9386  5.509099
  13054.903  13054.900  0.500  0.748306  47.4678  22.4602  5.389160
  13055.787  13055.800  0.500  0.768406  47.4586  22.009  5.264313
  13056.695  13056.700  0.500  0.786683  47.4446  21.604  5.139886
  13057.602  13057.600  0.500  0.802319  47.4297  21.2622  5.019203
  13058.517  13058.500  0.500  0.816226  47.4178  20.9633  4.894669
  13059.402  13059.400  0.500  0.827819  47.4044  20.7158  4.776153
  13060.198  13060.200  0.500  0.837187  47.3965  20.5192  4.670158
  13063.198  13063.210  0.500  0.865819  47.3605  19.9249  4.395095
  13066.430  13066.400  0.500  0.886170  47.3242  19.5085  4.325954
  13069.753  13069.760  0.500  0.869663  47.2777  19.8138  4.466738
  13073.301  13073.280  0.500  0.839151  47.1861  20.388  4.608273
  13076.970  13076.980  0.500  0.812963  47.1709  20.9223  4.724808
  13080.881  13080.850  0.500  0.794100  47.2284  21.3467  4.801042
  13084.898  13084.900  0.500  0.778804  47.1817  21.6542  4.805324
  13089.120  13089.110  0.500  0.769389  47.1322  21.8362  4.801382
  13093.486  13093.490  0.500  0.772610  47.0089  21.709  4.802913
  13098.051  13098.050  0.500  0.784499  47.024  21.4593  4.791273
  13102.760  13102.780  0.500  0.798237  46.9553  21.1356  4.747947
  13107.638  13107.680  0.500  0.809306  46.8927  20.8751  4.700220
  13112.812  13112.750  0.500  0.815525  46.8403  20.7225  4.646584
  13117.991  13117.990  0.500  0.820231  46.7047  20.5655  4.586877
  13123.399  13123.410  0.500  0.825919  46.7103  20.4513  4.563739
  13128.992  13128.990  0.500  0.826496  46.6465  20.4116  4.581379
  13134.717  13134.750  0.500  0.819700  46.5749  20.5192  4.626108
  13140.697  13140.680  0.500  0.802615  46.509  20.8433  4.707471
  13146.750  13146.780  0.500  0.788428  46.4357  21.1078  4.770573
  13153.065  13153.050  0.500  0.781250  46.3414  21.2166  4.798842
  13159.477  13159.490  0.500  0.782322  46.2841  21.1677  4.791382
  13166.107  13166.100  0.500  0.786371  46.1946  21.0414  4.769690
  13172.880  13172.890  0.500  0.787975  46.1257  20.9763  4.763489
  13179.857  13179.850  0.500  0.790046  46.0399  20.894  4.752793
  13186.955  13186.970  0.500  0.793708  45.9559  20.7796  4.733719
  13194.274  13194.270  0.500  0.796348  45.8695  20.6859  4.722321
  13201.738  13201.750  0.500  0.795714  45.777  20.6573  4.728033
  13209.401  13209.390  0.500  0.791722  45.6853  20.6983  4.746995
  13217.203  13217.200  0.500  0.787542  45.5848  20.7393  4.763080
  13225.197  13225.190  0.500  0.784600  45.4595  20.7433  4.769092
  13233.323  13233.350  0.500  0.780148  45.3876  20.8029  4.785559
  13241.658  13241.670  0.500  0.778796  45.286  20.7844  4.788431
  13250.165  13250.170  0.500  0.775246  45.1658  20.8029  4.801136
  13258.851  13258.850  0.500  0.770664  45.0323  20.8367  4.820036
  13267.695  13267.690  0.500  0.771446  44.83  20.7269  4.802626
  13276.736  13276.700  0.500  0.774168  44.2292  20.3935  4.734320
  13285.912  13285.890  0.500  0.776209  44.1211  20.3022  4.719218
  13295.247  13295.250  0.500  0.775189  44.0304  20.2811  4.722030
  13304.766  13304.770  0.500  0.772379  43.8709  20.2646  4.728025
  13314.485  13314.470  0.500  0.769290  43.8262  20.3065  4.751224
  13324.365  13324.350  0.500  0.765620  43.6882  20.317  4.764942
  13334.423  13334.390  0.500  0.762921  43.5882  20.3253  4.777046
  13344.605  13344.600  0.500  0.761743  43.5122  20.3138  4.786604
  13354.989  13354.990  0.500  0.757248  43.4349  20.369  4.810420
  13365.562  13365.550  0.500  0.753620  43.3033  20.3811  4.826312
  13376.292  13376.280  0.500  0.752874  43.1751  20.3359  4.828613
  13387.195  13387.180  0.500  0.751685  43.0669  20.3091  4.836036
  13398.297  13398.250  0.500  0.749663  42.947  20.2936  4.845321
  13409.512  13409.490  0.500  0.747998  42.8421  20.2777  4.855406
  13420.943  13420.910  0.500  0.746013  42.7192  20.2598  4.863220
  13432.503  13432.490  0.500  0.743880  42.5875  20.2404  4.873044
  13444.257  13444.250  0.500  0.740979  42.4559  20.2365  4.886182
  13456.183  13456.180  0.500  0.738378  42.3321  20.23  4.900458
  13468.311  13468.280  0.500  0.734875  42.196  20.2358  4.917771
  13480.565  13480.550  0.500  0.730846  41.932  20.1903  4.921512
  13493.009  13492.990  0.500  0.727985  41.9142  20.2396  4.949143
  13505.643  13505.610  0.500  0.726362  41.8095  20.2218  4.958585
  13518.428  13518.390  0.500  0.724128  41.6544  20.1918  4.966251
  13531.374  13531.350  0.500  0.721701  41.6791  20.2529  4.996222
  13544.506  13544.480  0.500  0.719059  41.6002  20.2681  5.016820
  13557.791  13557.780  0.500  0.715797  40.8178  19.9518  4.954209
  13571.288  13571.250  0.500  0.713011  41.2925  20.2402  5.043197
  13584.925  13584.900  0.500  0.710867  41.1662  20.2216  5.054782
  13598.759  13598.710  0.500  0.708414  41.0521  20.2151  5.070161
  13612.726  13612.700  0.500  0.704802  40.8628  20.1947  5.082818
  13626.877  13626.860  0.500  0.700571  40.7422  20.2204  5.106988
  13641.237  13641.190  0.500  0.696810  40.589  20.2203  5.124050
  13655.741  13655.690  0.500  0.694348  40.4483  20.1999  5.138734
  13670.406  13670.360  0.500  0.691662  40.2879  20.1739  5.149318
  13685.227  13685.200  0.500  0.689217  40.1278  20.1429  5.161977
  13700.244  13700.220  0.500  0.686210  39.9663  20.1223  5.175779
  13715.450  13715.400  0.500  0.682283  39.8131  20.124  5.194941
  13730.797  13730.760  0.500  0.678392  39.6479  20.1186  5.212938
  13746.345  13746.290  0.500  0.675621  39.4861  20.0921  5.225388
  13762.027  13761.990  0.500  0.672626  39.3133  20.0642  5.238281
  13777.911  13777.860  0.500  0.669200  39.126  20.0371  5.251747
  13793.965  13793.910  0.500  0.665820  38.9833  20.0317  5.269116
  13810.115  13810.120  0.500  0.662090  38.7879  20.0057  5.283655
  13826.513  13826.510  0.500  0.658128  38.6254  20.001  5.302678
  13843.067  13843.070  0.500  0.654584  38.4464  19.979  5.317924
  13859.854  13859.800  0.500  0.651695  38.2473  19.933  5.327511
  13876.733  13876.700  0.500  0.648382  38.003  19.8714  5.332187
  13888.098  13888.060  0.500  0.645925  37.6922  19.7574  5.316241