File: xdidata/Pb/Pb-L1-LeadDioxide.xdi
# XDI/1.0 BlueSky/1.10.0 BMM/2023-1.0-py310-tiled
# Beamline.name: BMM (06BM) -- Beamline for Materials Measurement (NIST)
# Beamline.xray_source: NSLS-II three-pole wiggler
# Beamline.collimation: paraboloid mirror, 5 nm Rh on 30 nm Pt
# Beamline.focusing: not in use
# Beamline.harmonic_rejection: flat mirror, Pt stripe, pitch = 7.0 mrad relative to beam
# Beamline.software: Bluesky 1.10.0, Ophyd 1.7.0, DataBroker 2.0.0b13, Python 3.10.8, 2023-1.0-py310-tiled
# Detector.I0: 10 cm N2
# Detector.I1: 25 cm N2
# Detector.I2: 25 cm N2
# Element.symbol: Pb
# Element.edge: L1
# Element.reference: Pb
# Element.reference_material: Pb foil
# Facility.name: NSLS-II
# Facility.energy: 3.0
# Facility.current: 399.0
# Facility.mode: top-off
# Facility.GUP: 301027
# Facility.SAF: 310583
# Facility.cycle: 2023-2
# Mono.name: Si(111)
# Mono.d_spacing: 3.13519
# Mono.encoder_resolution: 0.0000050 deg/ct
# Mono.angle_offset: 16.0754 deg
# Mono.scan_mode: pseudo channel cut
# Mono.scan_type: step
# Mono.direction: forward in energy
# Sample.name: PbO2
# Sample.prep: powder in PEG pellet
# Sample.x: 143.785 mm
# Sample.y: 114.695 mm
# Sample.SDD_position: 205.000 mm
# Scan.experimenters: Bruce Ravel
# Scan.edge_energy: 15860.8
# Scan.start_time: 2023-06-23T18:03:12
# Scan.end_time: 2023-06-23T18:11:58
# Scan.transient_id: 84921
# Scan.uid: 1eb2f177-f428-4115-b19f-fd7987c6c735
# Scan.plot_hint: ln(I0/It)  --  ln($5/$6)
# Column.1: energy eV
# Column.2: requested_energy eV
# Column.3: measurement_time seconds
# Column.4: xmu
# Column.5: I0 nA
# Column.6: It nA
# Column.7: Ir nA
# ///////////
# BMM standards collection
# -----------
# energy  requested_energy  measurement_time  xmu  I0  It  Ir
  15660.827  15660.800  0.500  0.585543  24.8215  13.8207  3.859456
  15690.865  15690.800  0.500  0.581544  24.6537  13.7823  3.868950
  15720.868  15720.800  0.500  0.577249  24.4757  13.7416  3.878059
  15750.845  15750.800  0.500  0.573648  24.2936  13.6887  3.881748
  15780.894  15780.800  0.500  0.569481  24.129  13.6527  3.885617
  15810.928  15810.800  0.500  0.566728  23.9543  13.5912  3.878028
  15832.686  15832.800  0.500  0.569106  23.8243  13.4853  3.837185
  15838.715  15838.800  0.500  0.571187  23.7904  13.4381  3.811649
  15844.726  15844.800  0.500  0.575780  23.7541  13.3561  3.764943
  15850.731  15850.800  0.500  0.585025  23.7059  13.2063  3.667663
  15851.600  15851.700  0.500  0.587464  23.7016  13.1718  3.647154
  15852.524  15852.600  0.500  0.590010  23.6962  13.1353  3.621555
  15853.449  15853.500  0.500  0.592788  23.6962  13.0989  3.592100
  15854.362  15854.400  0.500  0.596117  23.6944  13.0543  3.560372
  15855.276  15855.300  0.500  0.600060  23.6946  13.0031  3.523061
  15856.146  15856.200  0.500  0.604409  23.6895  12.9439  3.478782
  15857.048  15857.100  0.500  0.609673  23.6822  12.872  3.426271
  15857.951  15858.000  0.500  0.616153  23.6732  12.784  3.366473
  15858.854  15858.900  0.500  0.623825  23.6634  12.681  3.299200
  15859.769  15859.800  0.500  0.632518  23.6536  12.566  3.225592
  15860.661  15860.700  0.500  0.642509  23.6492  12.4388  3.148459
  15861.597  15861.600  0.500  0.653559  23.6492  12.3021  3.073033
  15862.501  15862.500  0.500  0.665346  23.6416  12.154  3.003050
  15863.393  15863.400  0.500  0.676526  23.6311  12.0136  2.944001
  15864.308  15864.300  0.500  0.687818  23.629  11.8776  2.895007
  15865.201  15865.200  0.500  0.697720  23.6217  11.757  2.858521
  15866.071  15866.100  0.500  0.705861  23.6156  11.6586  2.835268
  15866.975  15867.000  0.500  0.711985  23.6088  11.5841  2.822693
  15867.868  15867.900  0.500  0.715757  23.6025  11.5374  2.819488
  15868.773  15868.800  0.500  0.717378  23.5959  11.5155  2.825739
  15869.699  15869.700  0.500  0.716625  23.589  11.5208  2.835410
  15870.603  15870.600  0.500  0.714211  23.5823  11.5454  2.852147
  15871.530  15871.500  0.500  0.710631  23.5726  11.582  2.869023
  15872.412  15872.400  0.500  0.706423  23.5657  11.6275  2.883765
  15873.350  15873.300  0.500  0.702063  23.5558  11.6734  2.897683
  15874.222  15874.200  0.500  0.697503  23.5489  11.7233  2.910120
  15875.116  15875.100  0.500  0.693531  23.5445  11.7677  2.920909
  15875.988  15876.000  0.500  0.690046  23.5413  11.8072  2.928565
  15876.893  15876.900  0.500  0.686398  23.533  11.8462  2.936187
  15877.776  15877.800  0.500  0.683481  23.5281  11.8783  2.942897
  15878.703  15878.700  0.500  0.680546  23.5157  11.9069  2.946530
  15879.598  15879.600  0.500  0.678021  23.5075  11.9329  2.952537
  15880.503  15880.500  0.500  0.675596  23.4952  11.9556  2.957685
  15881.409  15881.400  0.500  0.673581  23.4907  11.9774  2.963494
  15882.326  15882.300  0.500  0.671657  23.4771  11.9936  2.969753
  15883.220  15883.200  0.500  0.669967  23.4649  12.0076  2.976011
  15884.126  15884.100  0.500  0.668361  23.4547  12.0217  2.983031
  15885.010  15885.000  0.500  0.666950  23.4443  12.0333  2.989629
  15885.784  15885.800  0.500  0.665794  23.4307  12.0402  2.993953
  15888.801  15888.810  0.500  0.661503  23.4078  12.0802  3.014176
  15892.030  15892.000  0.500  0.659017  23.3899  12.101  3.020341
  15895.393  15895.360  0.500  0.659857  23.3669  12.0789  3.010718
  15898.868  15898.880  0.500  0.662448  23.3414  12.0346  2.992155
  15902.599  15902.580  0.500  0.665178  23.3145  11.9879  2.975273
  15906.432  15906.450  0.500  0.668617  23.3205  11.9498  2.970995
  15910.455  15910.500  0.500  0.671746  23.2328  11.8677  2.957977
  15914.680  15914.710  0.500  0.674005  23.2484  11.8489  2.963254
  15919.051  15919.090  0.500  0.674982  23.2609  11.8436  2.963337
  15924.135  15923.650  0.500  0.673991  23.2243  11.8367  2.960927
  15928.256  15928.380  0.500  0.671726  23.1973  11.8498  2.962813
  15933.191  15933.280  0.500  0.668012  23.1689  11.8793  2.972403
  15938.251  15938.350  0.500  0.664101  23.1365  11.9092  2.985947
  15943.537  15943.590  0.500  0.661118  23.1025  11.9272  2.996840
  15948.971  15949.010  0.500  0.659557  22.9295  11.8564  2.982483
  15954.532  15954.590  0.500  0.658130  23.0564  11.939  3.006583
  15960.298  15960.350  0.500  0.657170  23.02  11.9317  3.006250
  15966.246  15966.280  0.500  0.656688  22.9816  11.9175  3.006159
  15972.388  15972.380  0.500  0.657086  22.945  11.8938  3.003522
  15978.625  15978.650  0.500  0.657857  22.913  11.868  3.001372
  15985.024  15985.090  0.500  0.657844  22.6986  11.7571  2.978579
  15991.685  15991.700  0.500  0.656935  22.8506  11.8466  3.005922
  15998.486  15998.490  0.500  0.655709  22.8073  11.8387  3.009072
  16005.428  16005.450  0.500  0.653847  22.7595  11.8359  3.012478
  16012.567  16012.570  0.500  0.651909  22.7201  11.8383  3.018849
  16019.892  16019.870  0.500  0.649617  22.6669  11.8377  3.023161
  16027.347  16027.350  0.500  0.647794  22.5397  11.7928  3.016647
  16035.024  16034.990  0.500  0.646500  22.6042  11.8418  3.033505
  16042.809  16042.800  0.500  0.645297  22.5615  11.8336  3.034687
  16050.771  16050.790  0.500  0.643650  22.5088  11.8255  3.038992
  16058.956  16058.950  0.500  0.642828  22.4671  11.8133  3.040966
  16067.240  16067.270  0.500  0.641625  22.4137  11.7994  3.042922
  16075.781  16075.770  0.500  0.640647  22.3273  11.7654  3.038635
  16084.467  16084.450  0.500  0.639787  22.3173  11.7702  3.044824
  16093.311  16093.290  0.500  0.638948  22.2677  11.7539  3.045013
  16102.300  16102.300  0.500  0.637125  22.2066  11.7431  3.048671
  16111.504  16111.490  0.500  0.634885  22.1605  11.745  3.054938
  16120.867  16120.850  0.500  0.632818  22.0913  11.7325  3.058413
  16130.366  16130.370  0.500  0.630783  22.0513  11.7352  3.063916
  16140.105  16140.070  0.500  0.629097  21.9978  11.7264  3.069125
  16149.935  16149.950  0.500  0.627491  21.9423  11.7157  3.072044
  16160.018  16159.990  0.500  0.626106  21.8903  11.7041  3.074517
  16170.239  16170.200  0.500  0.624167  21.8277  11.6932  3.078825
  16180.611  16180.590  0.500  0.622473  21.7686  11.6814  3.083012
  16191.180  16191.150  0.500  0.621263  21.8006  11.7127  3.097903
  16201.856  16201.880  0.500  0.619596  21.7373  11.6982  3.100639
  16212.775  16212.780  0.500  0.617557  21.681  11.6917  3.105806
  16223.871  16223.850  0.500  0.615597  21.6213  11.6824  3.110635
  16235.109  16235.090  0.500  0.613720  21.5089  11.6435  3.106187
  16246.548  16246.510  0.500  0.611590  21.4972  11.662  3.118217
  16258.107  16258.090  0.500  0.609632  21.4286  11.6475  3.121998
  16269.857  16269.850  0.500  0.607588  21.3697  11.6393  3.126352
  16281.787  16281.780  0.500  0.605622  21.3043  11.6265  3.131018
  16293.908  16293.880  0.500  0.603345  21.234  11.6145  3.135272
  16306.141  16306.150  0.500  0.601650  21.1226  11.5732  3.131757
  16318.603  16318.590  0.500  0.599827  21.1059  11.5851  3.143384
  16331.247  16331.210  0.500  0.597846  21.0404  11.5721  3.146774
  16344.017  16343.990  0.500  0.595690  20.965  11.5555  3.149057
  16356.935  16356.950  0.500  0.593381  20.8996  11.5461  3.155220
  16370.062  16370.080  0.500  0.591004  20.8075  11.5226  3.156303
  16383.410  16383.380  0.500  0.589271  20.7582  11.5153  3.164647
  16396.874  16396.850  0.500  0.587165  20.6845  11.4985  3.167416
  16410.526  16410.500  0.500  0.584983  20.6119  11.4832  3.169848
  16424.319  16424.310  0.500  0.582908  20.5387  11.4662  3.174157
  16438.289  16438.300  0.500  0.580398  20.4464  11.4434  3.177176
  16452.461  16452.460  0.500  0.578007  20.3855  11.4366  3.183510
  16466.836  16466.790  0.500  0.575850  20.3014  11.414  3.186680
  16481.331  16481.290  0.500  0.573643  20.1978  11.3808  3.186171
  16495.996  16495.960  0.500  0.571275  20.1121  11.3594  3.188983
  16510.829  16510.800  0.500  0.568955  20.0241  11.336  3.191890
  16525.858  16525.820  0.500  0.566406  19.9465  11.3209  3.196351
  16541.069  16541.000  0.500  0.564025  19.8666  11.3024  3.200492
  16556.441  16556.360  0.500  0.561727  19.7883  11.2838  3.204183
  16571.914  16571.890  0.500  0.559285  19.6989  11.2602  3.206474
  16587.597  16587.590  0.500  0.556669  19.6162  11.2424  3.210759
  16603.504  16603.460  0.500  0.554264  19.5338  11.2221  3.214667
  16619.562  16619.510  0.500  0.551631  19.4442  11.2  3.216941
  16635.797  16635.720  0.500  0.548911  19.3499  11.1761  3.219290
  16652.173  16652.110  0.500  0.546624  19.2692  11.1549  3.223574
  16668.740  16668.670  0.500  0.544241  19.1665  11.122  3.223045
  16685.401  16685.400  0.500  0.541761  19.0602  11.0878  3.224217
  16702.328  16702.300  0.500  0.539235  18.9118  11.0293  3.217021
  16713.718  16713.660  0.500  0.537126  18.0886  10.5714  3.086369