File: xdidata/Pb/Pb-L3-Galena.xdi
# XDI/1.0 BlueSky/1.10.0 BMM/2023-1.0-py310-tiled
# Beamline.name: BMM (06BM) -- Beamline for Materials Measurement (NIST)
# Beamline.xray_source: NSLS-II three-pole wiggler
# Beamline.collimation: paraboloid mirror, 5 nm Rh on 30 nm Pt
# Beamline.focusing: not in use
# Beamline.harmonic_rejection: flat mirror, Pt stripe, pitch = 7.0 mrad relative to beam
# Beamline.software: Bluesky 1.10.0, Ophyd 1.7.0, DataBroker 2.0.0b13, Python 3.10.8, 2023-1.0-py310-tiled
# Detector.I0: 10 cm N2
# Detector.I1: 25 cm N2
# Detector.I2: 25 cm N2
# Element.symbol: Pb
# Element.edge: L3
# Element.reference: Pb
# Element.reference_material: Pb foil
# Facility.name: NSLS-II
# Facility.energy: 3.0
# Facility.current: 399.7
# Facility.mode: top-off
# Facility.GUP: 301027
# Facility.SAF: 310583
# Facility.cycle: 2023-2
# Mono.name: Si(111)
# Mono.d_spacing: 3.13519
# Mono.encoder_resolution: 0.0000050 deg/ct
# Mono.angle_offset: 16.0754 deg
# Mono.scan_mode: pseudo channel cut
# Mono.scan_type: step
# Mono.direction: forward in energy
# Sample.name: PbS2
# Sample.prep: powder on tape
# Sample.x: 143.785 mm
# Sample.y: 114.695 mm
# Sample.SDD_position: 205.000 mm
# Scan.experimenters: Bruce Ravel
# Scan.edge_energy: 13035.2
# Scan.start_time: 2023-06-23T16:58:38
# Scan.end_time: 2023-06-23T17:06:47
# Scan.transient_id: 84882
# Scan.uid: ecd66214-cfd8-45c3-a5f1-cdd362b073cc
# Scan.plot_hint: ln(I0/It)  --  ln($5/$6)
# Column.1: energy eV
# Column.2: requested_energy eV
# Column.3: measurement_time seconds
# Column.4: xmu
# Column.5: I0 nA
# Column.6: It nA
# Column.7: Ir nA
# ///////////
# BMM standards collection
# -----------
# energy  requested_energy  measurement_time  xmu  I0  It  Ir
  12835.197  12835.200  0.500  0.115462  50.0247  44.5697  19.9252
  12865.240  12865.200  0.500  0.110302  49.6836  44.4948  19.9905
  12895.287  12895.200  0.500  0.105342  49.3211  44.3898  20.0448
  12925.265  12925.200  0.500  0.100440  48.9422  44.2653  20.0867
  12955.195  12955.200  0.500  0.096030  48.3639  43.9355  20.0149
  12985.199  12985.200  0.500  0.092851  48.2737  43.9933  20.0874
  13007.161  13007.200  0.500  0.093316  48.0208  43.7425  19.9225
  13013.149  13013.200  0.500  0.094678  47.9501  43.6186  19.8085
  13019.158  13019.200  0.500  0.097678  47.8759  43.4206  19.6095
  13025.164  13025.200  0.500  0.103806  47.8051  43.0915  19.2451
  13026.038  13026.100  0.500  0.105289  47.793  43.0168  19.1579
  13026.933  13027.000  0.500  0.106964  47.7826  42.9355  19.0626
  13027.844  13027.900  0.500  0.108766  47.7598  42.8377  18.9498
  13028.755  13028.800  0.500  0.111016  47.7565  42.7385  18.8204
  13029.636  13029.700  0.500  0.113746  47.7441  42.6109  18.6653
  13030.569  13030.600  0.500  0.116969  47.728  42.4594  18.474
  13031.473  13031.500  0.500  0.120802  47.7154  42.2859  18.2407
  13032.392  13032.400  0.500  0.125642  47.7045  42.0721  17.9463
  13033.273  13033.300  0.500  0.131496  47.8798  41.9802  17.6617
  13034.177  13034.200  0.500  0.139114  47.8653  41.649  17.2069
  13035.119  13035.100  0.500  0.148695  47.8561  41.2439  16.6698
  13035.986  13036.000  0.500  0.160165  47.845  40.7641  16.0816
  13036.876  13036.900  0.500  0.174440  47.8319  40.1753  15.4308
  13037.795  13037.800  0.500  0.193269  47.8185  39.4149  14.7076
  13038.678  13038.700  0.500  0.214709  47.8025  38.5659  13.9758
  13039.612  13039.600  0.500  0.240300  47.7947  37.5854  13.1718
  13040.495  13040.500  0.500  0.266707  47.7752  36.5909  12.3696
  13041.415  13041.400  0.500  0.295065  47.7717  35.5652  11.5284
  13042.298  13042.300  0.500  0.323333  47.7626  34.5673  10.7217
  13043.181  13043.200  0.500  0.352660  47.7452  33.5561  9.942514
  13044.071  13044.100  0.500  0.382101  47.7346  32.5753  9.238060
  13044.992  13045.000  0.500  0.411933  47.7271  31.6129  8.601366
  13045.883  13045.900  0.500  0.438654  47.7094  30.768  8.076517
  13046.804  13046.800  0.500  0.462243  47.6963  30.0424  7.640585
  13047.710  13047.700  0.500  0.481680  47.6493  29.4351  7.298290
  13048.608  13048.600  0.500  0.497516  47.6017  28.9437  7.048526
  13049.492  13049.500  0.500  0.510169  47.5802  28.5668  6.884313
  13050.384  13050.400  0.500  0.521366  47.6033  28.2625  6.780082
  13051.283  13051.300  0.500  0.531266  47.6247  27.9966  6.712967
  13052.204  13052.200  0.500  0.540617  47.6156  27.7308  6.659200
  13053.096  13053.100  0.500  0.549855  47.6046  27.4695  6.608867
  13054.010  13054.000  0.500  0.559713  47.5953  27.1947  6.546645
  13054.895  13054.900  0.500  0.569778  47.5892  26.9189  6.473486
  13055.810  13055.800  0.500  0.579031  47.5731  26.6619  6.393889
  13056.687  13056.700  0.500  0.585373  47.5615  26.4869  6.318248
  13057.580  13057.600  0.500  0.588376  47.5484  26.4002  6.250145
  13058.495  13058.500  0.500  0.587717  47.5316  26.4083  6.184575
  13059.395  13059.400  0.500  0.583800  47.5194  26.5051  6.129395
  13060.198  13060.200  0.500  0.578342  47.5072  26.6433  6.083269
  13063.235  13063.210  0.500  0.559470  47.4688  27.129  6.001486
  13066.422  13066.400  0.500  0.556681  47.4377  27.187  6.044310
  13069.782  13069.760  0.500  0.562692  47.3871  26.9952  6.096876
  13073.278  13073.280  0.500  0.563575  47.2963  26.9197  6.098517
  13077.008  13076.980  0.500  0.560331  47.297  27.0075  6.112191
  13080.843  13080.850  0.500  0.564505  47.2587  26.8732  6.058226
  13084.913  13084.900  0.500  0.573218  47.2142  26.615  5.918547
  13089.112  13089.110  0.500  0.582560  47.1579  26.3361  5.801908
  13093.494  13093.490  0.500  0.592807  47.0361  26.0003  5.765946
  13098.073  13098.050  0.500  0.589397  47.0524  26.0981  5.841246
  13102.768  13102.780  0.500  0.568677  46.978  26.6024  5.990138
  13107.691  13107.680  0.500  0.554184  46.922  26.9586  6.084996
  13112.767  13112.750  0.500  0.556593  46.8846  26.8723  6.041320
  13117.983  13117.990  0.500  0.565092  46.7417  26.5637  5.939468
  13123.414  13123.410  0.500  0.567612  46.7483  26.5006  5.928550
  13128.969  13128.990  0.500  0.567096  46.6879  26.48  5.958463
  13134.702  13134.750  0.500  0.568277  46.6106  26.405  5.965601
  13141.277  13140.680  0.500  0.569489  46.5273  26.3258  5.958347
  13146.840  13146.780  0.500  0.565306  46.454  26.3945  5.979485
  13153.050  13153.050  0.500  0.560129  46.3654  26.481  6.002664
  13159.484  13159.490  0.500  0.555667  46.3086  26.5667  6.026395
  13166.084  13166.100  0.500  0.553046  46.3093  26.6369  6.051912
  13172.895  13172.890  0.500  0.554368  46.3296  26.6134  6.057894
  13179.827  13179.850  0.500  0.555124  46.2492  26.5471  6.051961
  13186.970  13186.970  0.500  0.555133  46.1672  26.4998  6.050225
  13194.251  13194.270  0.500  0.554340  46.0718  26.466  6.055471
  13201.761  13201.750  0.500  0.552580  45.9826  26.4613  6.069890
  13209.386  13209.390  0.500  0.549821  45.8872  26.4794  6.086312
  13217.203  13217.200  0.500  0.546296  45.7948  26.5193  6.104102
  13225.166  13225.190  0.500  0.544180  45.6746  26.5058  6.106493
  13233.353  13233.350  0.500  0.543151  45.5939  26.4862  6.108274
  13241.673  13241.670  0.500  0.542810  45.4825  26.4305  6.102322
  13250.172  13250.170  0.500  0.542978  45.3737  26.3628  6.100423
  13258.851  13258.850  0.500  0.541817  45.2387  26.3149  6.101266
  13267.672  13267.690  0.500  0.539585  45.0315  26.2529  6.097791
  13276.689  13276.700  0.500  0.537188  44.4258  25.9619  6.039633
  13285.904  13285.890  0.500  0.535730  44.3221  25.9392  6.043332
  13295.278  13295.250  0.500  0.534141  44.2226  25.9221  6.048922
  13304.759  13304.770  0.500  0.531901  44.0685  25.8897  6.054492
  13314.477  13314.470  0.500  0.529612  44.0218  25.9215  6.076656
  13324.365  13324.350  0.500  0.528055  43.8875  25.8827  6.084249
  13334.399  13334.390  0.500  0.526538  43.7936  25.8666  6.094430
  13344.612  13344.600  0.500  0.524573  43.7112  25.8686  6.109511
  13354.989  13354.990  0.500  0.522340  43.6341  25.8807  6.125313
  13365.546  13365.550  0.500  0.519982  43.509  25.8675  6.138254
  13376.292  13376.280  0.500  0.517552  43.3812  25.8543  6.151683
  13387.211  13387.180  0.500  0.515211  43.2674  25.8469  6.166574
  13398.266  13398.250  0.500  0.513035  43.1454  25.8301  6.180362
  13409.505  13409.490  0.500  0.510840  43.0511  25.8303  6.196960
  13420.959  13420.910  0.500  0.508406  42.9301  25.8204  6.211957
  13432.527  13432.490  0.500  0.505945  42.7942  25.8021  6.224251
  13444.265  13444.250  0.500  0.503439  42.6521  25.781  6.237580
  13456.198  13456.180  0.500  0.500986  42.5279  25.769  6.255227
  13468.296  13468.280  0.500  0.498563  42.396  25.7515  6.269569
  13480.581  13480.550  0.500  0.495806  42.1449  25.6696  6.269032
  13493.009  13492.990  0.500  0.493252  42.1182  25.7189  6.300547
  13505.643  13505.610  0.500  0.490788  42.0258  25.7258  6.321128
  13518.420  13518.390  0.500  0.488337  41.8809  25.7001  6.334462
  13531.382  13531.350  0.500  0.485681  41.7127  25.6649  6.344267
  13544.498  13544.480  0.500  0.483041  41.63  25.6817  6.369107
  13557.807  13557.780  0.500  0.480350  40.8396  25.262  6.285812
  13571.256  13571.250  0.500  0.477504  41.3226  25.6336  6.399173
  13584.941  13584.900  0.500  0.474818  41.2001  25.6264  6.418388
  13598.742  13598.710  0.500  0.471893  41.0826  25.6282  6.438889
  13612.726  13612.700  0.500  0.469058  40.8999  25.5867  6.452321
  13626.902  13626.860  0.500  0.466105  40.785  25.5902  6.475575
  13641.212  13641.190  0.500  0.463243  40.6254  25.5631  6.490565
  13655.741  13655.690  0.500  0.460164  40.4844  25.553  6.512861
  13670.423  13670.360  0.500  0.457205  40.3249  25.5277  6.529799
  13685.227  13685.200  0.500  0.454277  40.1703  25.5044  6.547296
  13700.244  13700.220  0.500  0.451155  40.0057  25.4793  6.565344
  13715.433  13715.400  0.500  0.448028  39.8567  25.464  6.585951
  13730.822  13730.760  0.500  0.445107  39.7077  25.4429  6.603937
  13746.353  13746.290  0.500  0.441893  39.5454  25.4205  6.622324
  13762.027  13761.990  0.500  0.438755  39.3733  25.3895  6.640034
  13777.828  13777.860  0.500  0.435503  39.1969  25.358  6.656707
  13793.915  13793.910  0.500  0.432119  39.0332  25.3377  6.676129
  13810.099  13810.120  0.500  0.429189  38.866  25.3032  6.696482
  13826.546  13826.510  0.500  0.425827  38.6852  25.2703  6.711827
  13843.117  13843.070  0.500  0.422476  38.608  25.3046  6.748044
  13859.837  13859.800  0.500  0.419156  38.4467  25.2826  6.769309
  13876.733  13876.700  0.500  0.415776  38.1905  25.1991  6.773690
  13888.115  13888.060  0.500  0.413689  37.8961  25.0571  6.755343