File: xdidata/Pb/Pb-L1-Angelsite.xdi
# XDI/1.0 BlueSky/1.10.0 BMM/2023-1.0-py310-tiled
# Beamline.name: BMM (06BM) -- Beamline for Materials Measurement (NIST)
# Beamline.xray_source: NSLS-II three-pole wiggler
# Beamline.collimation: paraboloid mirror, 5 nm Rh on 30 nm Pt
# Beamline.focusing: not in use
# Beamline.harmonic_rejection: flat mirror, Pt stripe, pitch = 7.0 mrad relative to beam
# Beamline.software: Bluesky 1.10.0, Ophyd 1.7.0, DataBroker 2.0.0b13, Python 3.10.8, 2023-1.0-py310-tiled
# Detector.I0: 10 cm N2
# Detector.I1: 25 cm N2
# Detector.I2: 25 cm N2
# Element.symbol: Pb
# Element.edge: L1
# Element.reference: Pb
# Element.reference_material: Pb foil
# Facility.name: NSLS-II
# Facility.energy: 3.0
# Facility.current: 399.9
# Facility.mode: top-off
# Facility.GUP: 301027
# Facility.SAF: 310583
# Facility.cycle: 2023-2
# Mono.name: Si(111)
# Mono.d_spacing: 3.13519
# Mono.encoder_resolution: 0.0000050 deg/ct
# Mono.angle_offset: 16.0754 deg
# Mono.scan_mode: pseudo channel cut
# Mono.scan_type: step
# Mono.direction: forward in energy
# Sample.name: PbSO4
# Sample.prep: powder on tape
# Sample.x: 143.785 mm
# Sample.y: 114.695 mm
# Sample.SDD_position: 205.000 mm
# Scan.experimenters: Bruce Ravel
# Scan.edge_energy: 15860.8
# Scan.start_time: 2023-06-23T18:21:37
# Scan.end_time: 2023-06-23T18:29:49
# Scan.transient_id: 84931
# Scan.uid: e91c4bc7-d325-42c7-80f0-5a92df860830
# Scan.plot_hint: ln(I0/It)  --  ln($5/$6)
# Column.1: energy eV
# Column.2: requested_energy eV
# Column.3: measurement_time seconds
# Column.4: xmu
# Column.5: I0 nA
# Column.6: It nA
# Column.7: Ir nA
# ///////////
# BMM standards collection
# -----------
# energy  requested_energy  measurement_time  xmu  I0  It  Ir
  15660.763  15660.800  0.500  -0.003238  24.7613  24.8416  6.957018
  15690.908  15690.800  0.500  -0.006431  24.582  24.7406  6.966492
  15720.911  15720.800  0.500  -0.009487  24.3934  24.6259  6.970099
  15750.867  15750.800  0.500  -0.012121  24.2142  24.5095  6.968888
  15780.785  15780.800  0.500  -0.014867  24.0418  24.4019  6.967845
  15810.775  15810.800  0.500  -0.016418  23.8619  24.2569  6.944298
  15832.741  15832.800  0.500  -0.015568  23.7316  24.1039  6.879161
  15838.748  15838.800  0.500  -0.014159  23.7022  24.0402  6.839392
  15844.737  15844.800  0.500  -0.011145  23.6584  23.9235  6.765030
  15850.775  15850.800  0.500  -0.004119  23.6099  23.7073  6.605245
  15851.622  15851.700  0.500  -0.002423  23.6047  23.662  6.570383
  15852.535  15852.600  0.500  -0.000269  23.602  23.6084  6.529552
  15853.449  15853.500  0.500  0.002215  23.6014  23.5492  6.481226
  15854.362  15854.400  0.500  0.005113  23.6062  23.4858  6.426328
  15855.265  15855.300  0.500  0.008134  23.5967  23.4055  6.361430
  15856.157  15856.200  0.500  0.012473  23.5974  23.3049  6.285629
  15857.048  15857.100  0.500  0.017055  23.5916  23.1927  6.198651
  15857.940  15858.000  0.500  0.022730  23.579  23.0491  6.093748
  15858.854  15858.900  0.500  0.029344  23.5708  22.8892  5.978197
  15859.758  15859.800  0.500  0.036815  23.5623  22.7106  5.852162
  15860.683  15860.700  0.500  0.045160  23.5624  22.522  5.723774
  15861.586  15861.600  0.500  0.052994  23.5528  22.3372  5.603602
  15862.490  15862.500  0.500  0.059890  23.5431  22.1745  5.502873
  15863.393  15863.400  0.500  0.065349  23.6279  22.1332  5.445704
  15864.308  15864.300  0.500  0.068666  23.6233  22.0557  5.396579
  15865.179  15865.200  0.500  0.069426  23.6172  22.0332  5.378552
  15866.082  15866.100  0.500  0.067699  23.6142  22.0685  5.386309
  15866.975  15867.000  0.500  0.063894  23.6071  22.1459  5.417110
  15867.890  15867.900  0.500  0.058762  23.6005  22.2537  5.458598
  15868.795  15868.800  0.500  0.053114  23.5942  22.3737  5.508264
  15869.699  15869.700  0.500  0.047765  23.5851  22.485  5.554348
  15870.625  15870.600  0.500  0.043092  23.582  22.5874  5.596541
  15871.508  15871.500  0.500  0.039161  23.5706  22.6654  5.627980
  15872.412  15872.400  0.500  0.036026  23.5657  22.7318  5.653541
  15873.306  15873.300  0.500  0.034149  23.555  22.7642  5.668239
  15874.211  15874.200  0.500  0.032672  23.5448  22.788  5.675008
  15875.094  15875.100  0.500  0.031817  23.5431  22.8058  5.678833
  15875.988  15876.000  0.500  0.031329  23.5366  22.8106  5.676958
  15876.893  15876.900  0.500  0.031182  23.5322  22.8098  5.673300
  15877.798  15877.800  0.500  0.031406  23.5288  22.8013  5.665279
  15878.703  15878.700  0.500  0.031805  23.522  22.7857  5.658390
  15879.620  15879.600  0.500  0.032307  23.5106  22.7632  5.650066
  15880.514  15880.500  0.500  0.032852  23.5007  22.7412  5.644181
  15881.420  15881.400  0.500  0.033519  23.4972  22.7227  5.639656
  15882.292  15882.300  0.500  0.034120  23.4929  22.7048  5.638733
  15883.220  15883.200  0.500  0.034855  23.4863  22.6818  5.638569
  15884.104  15884.100  0.500  0.035591  23.4846  22.6634  5.640521
  15884.999  15885.000  0.500  0.036277  23.4756  22.6393  5.642174
  15885.762  15885.800  0.500  0.036621  23.4711  22.6271  5.642228
  15888.845  15888.810  0.500  0.038297  23.4545  22.5733  5.646797
  15892.019  15892.000  0.500  0.038386  23.4356  22.553  5.648168
  15895.371  15895.360  0.500  0.037411  23.4164  22.5566  5.640480
  15898.868  15898.880  0.500  0.036961  23.3965  22.5475  5.626377
  15902.610  15902.580  0.500  0.036125  23.3714  22.5422  5.614042
  15906.465  15906.450  0.500  0.034960  23.3423  22.5403  5.619903
  15910.533  15910.500  0.500  0.033363  23.2478  22.485  5.624681
  15914.768  15914.710  0.500  0.032327  23.2631  22.5231  5.650892
  15919.084  15919.090  0.500  0.032177  23.2846  22.5473  5.661214
  15923.669  15923.650  0.500  0.032163  23.2546  22.5185  5.649756
  15928.412  15928.380  0.500  0.031981  23.223  22.4921  5.641154
  15933.269  15933.280  0.500  0.031773  23.19  22.4648  5.640062
  15938.351  15938.350  0.500  0.031547  23.1591  22.4399  5.642039
  15943.548  15943.590  0.500  0.031438  23.1261  22.4104  5.647418
  15949.016  15949.010  0.500  0.030729  22.9445  22.2501  5.614713
  15954.599  15954.590  0.500  0.029743  23.0657  22.3898  5.655906
  15960.298  15960.350  0.500  0.028415  23.0329  22.3876  5.658940
  15966.212  15966.280  0.500  0.027325  22.9951  22.3753  5.661827
  15972.277  15972.380  0.500  0.026558  22.9511  22.3496  5.662296
  15978.715  15978.650  0.500  0.026264  22.9046  22.3108  5.661119
  15985.136  15985.090  0.500  0.026032  22.7047  22.1213  5.622198
  15991.763  15991.700  0.500  0.025088  22.8441  22.2781  5.671031
  15998.565  15998.490  0.500  0.024467  22.8864  22.3332  5.693262
  16005.462  16005.450  0.500  0.023667  22.8412  22.307  5.694976
  16012.612  16012.570  0.500  0.022726  22.7976  22.2853  5.699626
  16019.937  16019.870  0.500  0.021717  22.7408  22.2522  5.698045
  16027.358  16027.350  0.500  0.020872  22.6153  22.1482  5.682952
  16035.024  16034.990  0.500  0.020141  22.6751  22.223  5.710179
  16042.831  16042.800  0.500  0.019124  22.6283  22.1996  5.712245
  16050.805  16050.790  0.500  0.018386  22.5857  22.1742  5.714549
  16059.001  16058.950  0.500  0.017498  22.5371  22.1462  5.717981
  16067.296  16067.270  0.500  0.016654  22.4884  22.117  5.720066
  16075.792  16075.770  0.500  0.015826  22.4  22.0482  5.712303
  16084.467  16084.450  0.500  0.014990  22.3938  22.0606  5.724473
  16093.311  16093.290  0.500  0.013791  22.3383  22.0323  5.725887
  16102.334  16102.300  0.500  0.012888  22.2827  21.9973  5.726472
  16111.493  16111.490  0.500  0.011797  22.232  21.9713  5.731681
  16120.867  16120.850  0.500  0.010800  22.1636  21.9256  5.732751
  16130.343  16130.370  0.500  0.009519  22.119  21.9095  5.739860
  16140.127  16140.070  0.500  0.008595  22.0615  21.8727  5.740217
  16149.935  16149.950  0.500  0.007482  22.005  21.841  5.744115
  16159.984  16159.990  0.500  0.006505  21.9477  21.8054  5.746244
  16170.216  16170.200  0.500  0.005254  21.8842  21.7696  5.748842
  16180.588  16180.590  0.500  0.004279  21.8295  21.7363  5.753661
  16191.192  16191.150  0.500  0.003013  21.7666  21.7012  5.755791
  16201.867  16201.880  0.500  0.001821  21.6991  21.6596  5.757011
  16212.764  16212.780  0.500  0.000637  21.6315  21.6177  5.759242
  16223.871  16223.850  0.500  -0.000543  21.5595  21.5712  5.759348
  16235.098  16235.090  0.500  -0.001827  21.4466  21.4858  5.748739
  16246.525  16246.510  0.500  -0.003066  21.4169  21.4827  5.760862
  16258.131  16258.090  0.500  -0.004184  21.3439  21.4334  5.763273
  16269.834  16269.850  0.500  -0.005431  21.2688  21.3846  5.761491
  16281.787  16281.780  0.500  -0.006681  21.1924  21.3345  5.763087
  16293.920  16293.880  0.500  -0.008048  21.1084  21.279  5.760747
  16306.165  16306.150  0.500  -0.009418  20.9768  21.1753  5.746147
  16318.591  16318.590  0.500  -0.010727  20.9571  21.1831  5.763206
  16331.236  16331.210  0.500  -0.011980  20.8877  21.1395  5.764192
  16344.017  16343.990  0.500  -0.013504  20.8013  21.0841  5.763968
  16356.935  16356.950  0.500  -0.014664  20.7324  21.0386  5.766005
  16370.109  16370.080  0.500  -0.016083  20.6386  20.9732  5.762510
  16383.422  16383.380  0.500  -0.017296  20.5793  20.9383  5.768988
  16396.874  16396.850  0.500  -0.018837  20.4974  20.8872  5.768342
  16410.503  16410.500  0.500  -0.020124  20.4287  20.844  5.772441
  16424.284  16424.310  0.500  -0.021761  20.3403  20.7878  5.772178
  16438.301  16438.300  0.500  -0.022967  20.2359  20.706  5.765420
  16452.520  16452.460  0.500  -0.024591  20.19  20.6927  5.778620
  16466.824  16466.790  0.500  -0.026014  20.1102  20.6402  5.777803
  16481.331  16481.290  0.500  -0.027416  20.0168  20.5732  5.776196
  16495.972  16495.960  0.500  -0.029133  19.9408  20.5302  5.778265
  16510.829  16510.800  0.500  -0.030395  19.8642  20.4772  5.780917
  16525.834  16525.820  0.500  -0.032050  19.774  20.418  5.779522
  16541.045  16541.000  0.500  -0.033310  19.6962  20.3633  5.781153
  16556.393  16556.360  0.500  -0.035032  19.617  20.3164  5.785022
  16571.963  16571.890  0.500  -0.036651  19.5178  20.2464  5.782200
  16587.634  16587.590  0.500  -0.037946  19.45  20.2022  5.786066
  16603.467  16603.460  0.500  -0.039612  19.354  20.1361  5.783182
  16619.562  16619.510  0.500  -0.041148  19.2564  20.0653  5.780595
  16635.809  16635.720  0.500  -0.042912  19.1791  20.02  5.783492
  16652.149  16652.110  0.500  -0.044424  19.0918  19.9591  5.783252
  16668.728  16668.670  0.500  -0.046118  18.9882  19.8844  5.777681
  16685.438  16685.400  0.500  -0.047642  18.8805  19.8018  5.772094
  16702.353  16702.300  0.500  -0.049324  18.7297  19.6766  5.753119
  16713.718  16713.660  0.500  -0.050238  17.9463  18.871  5.525105