File: xdidata/Pb/Pb-L3-LeadChloride.xdi
# XDI/1.0 BlueSky/1.10.0 BMM/2023-1.0-py310-tiled
# Beamline.name: BMM (06BM) -- Beamline for Materials Measurement (NIST)
# Beamline.xray_source: NSLS-II three-pole wiggler
# Beamline.collimation: paraboloid mirror, 5 nm Rh on 30 nm Pt
# Beamline.focusing: not in use
# Beamline.harmonic_rejection: flat mirror, Pt stripe, pitch = 7.0 mrad relative to beam
# Beamline.software: Bluesky 1.10.0, Ophyd 1.7.0, DataBroker 2.0.0b13, Python 3.10.8, 2023-1.0-py310-tiled
# Detector.I0: 10 cm N2
# Detector.I1: 25 cm N2
# Detector.I2: 25 cm N2
# Element.symbol: Pb
# Element.edge: L3
# Element.reference: Pb
# Element.reference_material: Pb foil
# Facility.name: NSLS-II
# Facility.energy: 3.0
# Facility.current: 400.0
# Facility.mode: top-off
# Facility.GUP: 301027
# Facility.SAF: 310583
# Facility.cycle: 2023-2
# Mono.name: Si(111)
# Mono.d_spacing: 3.13519
# Mono.encoder_resolution: 0.0000050 deg/ct
# Mono.angle_offset: 16.0754 deg
# Mono.scan_mode: pseudo channel cut
# Mono.scan_type: step
# Mono.direction: forward in energy
# Sample.name: PbCl
# Sample.prep: powder on tape
# Sample.x: 143.785 mm
# Sample.y: 114.695 mm
# Sample.SDD_position: 205.000 mm
# Scan.experimenters: Bruce Ravel
# Scan.edge_energy: 13035.2
# Scan.start_time: 2023-06-23T17:24:11
# Scan.end_time: 2023-06-23T17:32:24
# Scan.transient_id: 84897
# Scan.uid: 2970ed40-5b97-41c4-97c5-dec35ca7609c
# Scan.plot_hint: ln(I0/It)  --  ln($5/$6)
# Column.1: energy eV
# Column.2: requested_energy eV
# Column.3: measurement_time seconds
# Column.4: xmu
# Column.5: I0 nA
# Column.6: It nA
# Column.7: Ir nA
# ///////////
# BMM standards collection
# -----------
# energy  requested_energy  measurement_time  xmu  I0  It  Ir
  12835.140  12835.200  0.500  1.837757  49.9794  7.955424  3.557091
  12865.225  12865.200  0.500  1.821386  49.6513  8.033648  3.609035
  12895.251  12895.200  0.500  1.805827  49.2965  8.101318  3.659335
  12925.214  12925.200  0.500  1.791495  48.932  8.157483  3.700065
  12955.261  12955.200  0.500  1.778161  48.3724  8.172455  3.722211
  12985.169  12985.200  0.500  1.769704  48.2731  8.224931  3.753252
  13007.154  13007.200  0.500  1.775166  48.0292  8.138800  3.706470
  13013.149  13013.200  0.500  1.781935  47.9572  8.071779  3.664665
  13019.143  13019.200  0.500  1.794144  47.8859  7.961977  3.594089
  13025.150  13025.200  0.500  1.818045  47.8112  7.761808  3.465830
  13026.038  13026.100  0.500  1.823703  47.799  7.716046  3.436466
  13026.956  13027.000  0.500  1.829953  47.7852  7.665756  3.403124
  13027.859  13027.900  0.500  1.836641  47.7691  7.612084  3.366323
  13028.755  13028.800  0.500  1.844598  47.7594  7.550223  3.324633
  13029.651  13029.700  0.500  1.853880  47.7445  7.478137  3.275593
  13030.562  13030.600  0.500  1.864517  47.7345  7.397465  3.219052
  13031.451  13031.500  0.500  1.877200  47.7185  7.301798  3.150795
  13032.369  13032.400  0.500  1.892971  47.7099  7.186244  3.067107
  13033.288  13033.300  0.500  1.911703  47.6971  7.050981  2.967491
  13034.192  13034.200  0.500  1.933972  47.685  6.893948  2.849113
  13035.096  13035.100  0.500  1.960609  47.6732  6.711077  2.716536
  13035.979  13036.000  0.500  1.993251  47.6593  6.493655  2.566166
  13036.876  13036.900  0.500  2.032813  47.6467  6.240128  2.400162
  13037.788  13037.800  0.500  2.083188  47.6347  5.932071  2.217147
  13038.692  13038.700  0.500  2.143917  47.625  5.581413  2.026644
  13039.597  13039.600  0.500  2.220382  47.6111  5.169025  1.816160
  13040.532  13040.500  0.500  2.318110  47.5951  4.686188  1.587648
  13041.407  13041.400  0.500  2.436933  47.5826  4.160080  1.354042
  13042.305  13042.300  0.500  2.585501  47.569  3.584718  1.115505
  13043.196  13043.200  0.500  2.760312  47.5595  3.009185  0.894587
  13044.079  13044.100  0.500  2.950245  47.5474  2.488008  0.707809
  13044.992  13045.000  0.500  3.138942  47.5364  2.059685  0.561367
  13045.890  13045.900  0.500  3.294009  47.5193  1.763193  0.462846
  13046.804  13046.800  0.500  3.414733  47.5079  1.562307  0.397058
  13047.710  13047.700  0.500  3.511480  47.4662  1.416995  0.350280
  13048.593  13048.600  0.500  3.591892  47.4175  1.306171  0.317301
  13049.500  13049.500  0.500  3.661556  47.3936  1.217659  0.292107
  13050.376  13050.400  0.500  3.717987  47.413  1.151319  0.275029
  13051.305  13051.300  0.500  3.762581  47.6141  1.105778  0.263925
  13052.204  13052.200  0.500  3.792227  47.6117  1.073421  0.256558
  13053.111  13053.100  0.500  3.808755  47.5996  1.055558  0.252611
  13053.996  13054.000  0.500  3.816113  47.5816  1.047424  0.251320
  13054.903  13054.900  0.500  3.817291  47.5737  1.046016  0.250696
  13055.795  13055.800  0.500  3.816230  47.5646  1.046926  0.250041
  13056.680  13056.700  0.500  3.815806  47.548  1.047004  0.249008
  13057.602  13057.600  0.500  3.817097  47.5378  1.045429  0.246566
  13058.502  13058.500  0.500  3.819535  47.5225  1.042549  0.243527
  13059.410  13059.400  0.500  3.822574  47.5107  1.039126  0.239557
  13060.213  13060.200  0.500  3.824742  47.4988  1.036617  0.235657
  13063.213  13063.210  0.500  3.825509  47.4626  1.035033  0.228271
  13066.445  13066.400  0.500  3.816021  47.423  1.044028  0.231187
  13069.753  13069.760  0.500  3.798912  47.3779  1.061034  0.238857
  13073.316  13073.280  0.500  3.780893  47.2868  1.078249  0.243535
  13076.985  13076.980  0.500  3.796431  47.2812  1.061499  0.239246
  13080.873  13080.850  0.500  3.829005  47.2506  1.026815  0.230844
  13084.906  13084.900  0.500  3.861032  47.2  0.993384  0.220139
  13089.127  13089.110  0.500  3.892117  47.1574  0.962110  0.211235
  13093.471  13093.490  0.500  3.899712  47.0313  0.952278  0.210389
  13098.080  13098.050  0.500  3.877638  47.0474  0.973865  0.216858
  13102.783  13102.780  0.500  3.839748  46.9793  1.010009  0.226701
  13107.706  13107.680  0.500  3.805202  46.9216  1.044226  0.234765
  13112.775  13112.750  0.500  3.795472  46.8844  1.053600  0.236006
  13118.013  13117.990  0.500  3.800972  46.7474  1.044761  0.232902
  13123.429  13123.410  0.500  3.814419  46.7595  1.031072  0.229959
  13129.007  13128.990  0.500  3.831085  46.6971  1.012678  0.226950
  13134.740  13134.750  0.500  3.840921  46.6232  1.001177  0.225440
  13140.674  13140.680  0.500  3.835431  46.5626  1.005381  0.226712
  13146.787  13146.780  0.500  3.816696  46.4881  1.022756  0.230856
  13153.065  13153.050  0.500  3.802302  46.4009  1.035636  0.233981
  13159.484  13159.490  0.500  3.792092  46.3435  1.044971  0.236072
  13166.054  13166.100  0.500  3.783899  46.263  1.051738  0.238070
  13172.857  13172.890  0.500  3.781348  46.188  1.052715  0.238889
  13179.917  13179.850  0.500  3.783812  46.0967  1.048048  0.238060
  13187.077  13186.970  0.500  3.784334  46.0103  1.045538  0.237946
  13194.236  13194.270  0.500  3.781007  45.929  1.047169  0.238842
  13201.723  13201.750  0.500  3.774702  45.8364  1.051668  0.240542
  13209.371  13209.390  0.500  3.767793  45.7478  1.056911  0.241944
  13217.187  13217.200  0.500  3.760152  45.6511  1.062767  0.243450
  13225.174  13225.190  0.500  3.752640  45.5359  1.068078  0.245154
  13233.346  13233.350  0.500  3.747313  45.4596  1.071984  0.246315
  13241.635  13241.670  0.500  3.743748  45.3516  1.073257  0.246823
  13250.157  13250.170  0.500  3.741067  45.2416  1.073528  0.247534
  13258.828  13258.850  0.500  3.738898  45.104  1.072586  0.247998
  13267.687  13267.690  0.500  3.735177  44.9108  1.071973  0.247954
  13276.705  13276.700  0.500  3.729666  44.2999  1.063235  0.246346
  13285.866  13285.890  0.500  3.723711  44.1992  1.067154  0.247646
  13295.247  13295.250  0.500  3.716984  44.1065  1.072105  0.249328
  13304.751  13304.770  0.500  3.710219  43.941  1.075331  0.250960
  13314.454  13314.470  0.500  3.703015  44.0434  1.085631  0.253441
  13324.365  13324.350  0.500  3.695700  43.9148  1.090407  0.255171
  13334.399  13334.390  0.500  3.689940  43.8103  1.094097  0.256776
  13344.605  13344.600  0.500  3.684131  43.7326  1.098519  0.258825
  13354.989  13354.990  0.500  3.677617  43.6608  1.103883  0.260422
  13365.538  13365.550  0.500  3.669668  43.5271  1.109284  0.262428
  13376.284  13376.280  0.500  3.661866  43.4001  1.114711  0.264538
  13387.195  13387.180  0.500  3.654285  43.2881  1.120297  0.266330
  13398.274  13398.250  0.500  3.645615  43.1796  1.127218  0.268607
  13409.512  13409.490  0.500  3.636981  43.0791  1.134348  0.271383
  13420.943  13420.910  0.500  3.629352  42.9602  1.139878  0.273543
  13432.503  13432.490  0.500  3.620532  42.8276  1.146427  0.275574
  13444.250  13444.250  0.500  3.612891  42.7021  1.151835  0.277967
  13456.206  13456.180  0.500  3.604050  42.5771  1.158662  0.280455
  13468.311  13468.280  0.500  3.595202  42.4432  1.165284  0.282674
  13480.565  13480.550  0.500  3.586673  42.2207  1.169105  0.284456
  13493.009  13492.990  0.500  3.578236  42.1606  1.177330  0.287447
  13505.643  13505.610  0.500  3.568953  42.0774  1.185967  0.290733
  13518.436  13518.390  0.500  3.560313  41.9267  1.191973  0.292901
  13531.382  13531.350  0.500  3.550504  41.768  1.199166  0.295399
  13544.514  13544.480  0.500  3.541619  41.6873  1.207530  0.298443
  13557.807  13557.780  0.500  3.532535  40.8691  1.194632  0.296311
  13571.256  13571.250  0.500  3.523641  41.3865  1.220566  0.303663
  13584.925  13584.900  0.500  3.513690  41.2738  1.229416  0.306924
  13598.734  13598.710  0.500  3.503253  41.1489  1.238554  0.310274
  13612.751  13612.700  0.500  3.493103  40.9743  1.245879  0.312869
  13626.877  13626.860  0.500  3.483795  40.855  1.253869  0.316310
  13641.196  13641.190  0.500  3.473187  40.7044  1.262568  0.319438
  13655.724  13655.690  0.500  3.463492  40.5559  1.270219  0.323099
  13670.398  13670.360  0.500  3.452660  40.4035  1.279227  0.326101
  13685.219  13685.200  0.500  3.442207  40.2511  1.287793  0.329673
  13700.276  13700.220  0.500  3.432044  40.0976  1.295988  0.332921
  13715.466  13715.400  0.500  3.421218  39.9438  1.305069  0.336788
  13730.797  13730.760  0.500  3.410209  39.7927  1.314525  0.340038
  13746.312  13746.290  0.500  3.398900  39.6313  1.324081  0.343799
  13761.961  13761.990  0.500  3.388118  39.4662  1.332860  0.347646
  13777.869  13777.860  0.500  3.376890  39.3001  1.342234  0.351297
  13793.932  13793.910  0.500  3.365410  39.1398  1.352194  0.355644
  13810.157  13810.120  0.500  3.354197  38.969  1.361477  0.359295
  13826.555  13826.510  0.500  3.342708  38.8042  1.371384  0.363413
  13843.125  13843.070  0.500  3.331030  38.6292  1.381237  0.367230
  13859.829  13859.800  0.500  3.319566  38.4395  1.390299  0.371257
  13876.741  13876.700  0.500  3.307703  38.1979  1.398050  0.374815
  13888.115  13888.060  0.500  3.299695  37.8994  1.398275  0.376035