File: xdidata/Pb/Pb-L3-Angelsite.xdi
# XDI/1.0 BlueSky/1.10.0 BMM/2023-1.0-py310-tiled
# Beamline.name: BMM (06BM) -- Beamline for Materials Measurement (NIST)
# Beamline.xray_source: NSLS-II three-pole wiggler
# Beamline.collimation: paraboloid mirror, 5 nm Rh on 30 nm Pt
# Beamline.focusing: not in use
# Beamline.harmonic_rejection: flat mirror, Pt stripe, pitch = 7.0 mrad relative to beam
# Beamline.software: Bluesky 1.10.0, Ophyd 1.7.0, DataBroker 2.0.0b13, Python 3.10.8, 2023-1.0-py310-tiled
# Detector.I0: 10 cm N2
# Detector.I1: 25 cm N2
# Detector.I2: 25 cm N2
# Element.symbol: Pb
# Element.edge: L3
# Element.reference: Pb
# Element.reference_material: Pb foil
# Facility.name: NSLS-II
# Facility.energy: 3.0
# Facility.current: 400.9
# Facility.mode: top-off
# Facility.GUP: 301027
# Facility.SAF: 310583
# Facility.cycle: 2023-2
# Mono.name: Si(111)
# Mono.d_spacing: 3.13519
# Mono.encoder_resolution: 0.0000050 deg/ct
# Mono.angle_offset: 16.0754 deg
# Mono.scan_mode: pseudo channel cut
# Mono.scan_type: step
# Mono.direction: forward in energy
# Sample.name: PbSO4
# Sample.prep: powder on tape
# Sample.x: 143.785 mm
# Sample.y: 114.695 mm
# Sample.SDD_position: 205.000 mm
# Scan.experimenters: Bruce Ravel
# Scan.edge_energy: 13035.2
# Scan.start_time: 2023-06-23T17:07:19
# Scan.end_time: 2023-06-23T17:15:15
# Scan.transient_id: 84887
# Scan.uid: fadb15ae-21f6-4401-a3e6-e6eb289fed29
# Scan.plot_hint: ln(I0/It)  --  ln($5/$6)
# Column.1: energy eV
# Column.2: requested_energy eV
# Column.3: measurement_time seconds
# Column.4: xmu
# Column.5: I0 nA
# Column.6: It nA
# Column.7: Ir nA
# ///////////
# BMM standards collection
# -----------
# energy  requested_energy  measurement_time  xmu  I0  It  Ir
  12835.154  12835.200  0.500  -0.056743  50.1545  53.0828  23.7852
  12865.203  12865.200  0.500  -0.060911  49.8181  52.9469  23.8446
  12895.251  12895.200  0.500  -0.064905  49.4637  52.7806  23.8861
  12925.236  12925.200  0.500  -0.068769  49.0897  52.5843  23.9119
  12955.224  12955.200  0.500  -0.072575  48.5193  52.1715  23.8184
  12985.250  12985.200  0.500  -0.075545  48.4192  52.2188  23.8928
  13007.183  13007.200  0.500  -0.076218  48.1675  51.9822  23.7267
  13013.186  13013.200  0.500  -0.075774  48.0958  51.8818  23.613
  13019.180  13019.200  0.500  -0.074602  48.0295  51.7496  23.4236
  13025.164  13025.200  0.500  -0.072246  47.9577  51.5507  23.0751
  13026.052  13026.100  0.500  -0.071572  47.9449  51.5022  22.9922
  13026.941  13027.000  0.500  -0.071030  47.9259  51.4539  22.8979
  13027.866  13027.900  0.500  -0.070242  47.9168  51.4036  22.7885
  13028.777  13028.800  0.500  -0.069354  47.8981  51.3379  22.6593
  13029.680  13029.700  0.500  -0.068343  47.8905  51.2779  22.5097
  13030.591  13030.600  0.500  -0.067285  47.8764  51.2085  22.3257
  13031.473  13031.500  0.500  -0.065891  47.8596  51.1193  22.1024
  13032.369  13032.400  0.500  -0.064306  47.8516  51.0298  21.8288
  13033.266  13033.300  0.500  -0.062575  47.8367  50.9257  21.4764
  13034.185  13034.200  0.500  -0.060175  47.8215  50.7876  21.039
  13035.074  13035.100  0.500  -0.057582  47.8119  50.6458  20.5384
  13035.993  13036.000  0.500  -0.054353  47.8004  50.4704  19.9564
  13036.898  13036.900  0.500  -0.050563  47.7852  50.2635  19.3491
  13037.802  13037.800  0.500  -0.045692  47.7741  50.0077  18.7064
  13038.700  13038.700  0.500  -0.039874  47.7627  49.7057  18.0506
  13039.582  13039.600  0.500  -0.032615  47.7455  49.3284  17.3486
  13040.487  13040.500  0.500  -0.023403  47.735  48.8653  16.5865
  13041.392  13041.400  0.500  -0.011436  47.7234  48.2722  15.7184
  13042.298  13042.300  0.500  0.004239  47.7125  47.5107  14.7814
  13043.196  13043.200  0.500  0.024013  47.7014  46.5696  13.8386
  13044.094  13044.100  0.500  0.048666  47.686  45.4209  12.9136
  13044.992  13045.000  0.500  0.077690  47.6763  44.1125  12.0475
  13045.898  13045.900  0.500  0.109405  47.6602  42.721  11.2496
  13046.796  13046.800  0.500  0.140373  47.6442  41.4044  10.5704
  13047.695  13047.700  0.500  0.169319  47.6033  40.1886  10.0005
  13048.616  13048.600  0.500  0.192970  47.5558  39.2101  9.581664
  13049.514  13049.500  0.500  0.209925  47.5288  38.529  9.314144
  13050.391  13050.400  0.500  0.220205  47.5508  38.1526  9.183213
  13051.298  13051.300  0.500  0.225722  47.5709  37.9587  9.132391
  13052.175  13052.200  0.500  0.227105  47.5661  37.9025  9.131644
  13053.096  13053.100  0.500  0.226706  47.5538  37.9078  9.151788
  13054.003  13054.000  0.500  0.225306  47.5447  37.9536  9.170023
  13054.903  13054.900  0.500  0.223344  47.5276  38.0145  9.176001
  13055.832  13055.800  0.500  0.220672  47.5142  38.1054  9.169507
  13056.695  13056.700  0.500  0.216981  47.4991  38.2342  9.154676
  13057.587  13057.600  0.500  0.211629  47.5647  38.4924  9.144047
  13058.480  13058.500  0.500  0.205275  47.5475  38.7238  9.102353
  13059.395  13059.400  0.500  0.198138  47.537  38.9926  9.046266
  13060.213  13060.200  0.500  0.192053  47.5245  39.2202  8.986044
  13063.243  13063.210  0.500  0.180127  47.4899  39.6619  8.803364
  13066.430  13066.400  0.500  0.184782  47.4466  39.4416  8.795549
  13069.790  13069.760  0.500  0.192160  47.4054  39.1177  8.865503
  13073.286  13073.280  0.500  0.193686  47.3112  38.9804  8.860799
  13077.022  13076.980  0.500  0.197946  47.3018  38.8071  8.812252
  13080.851  13080.850  0.500  0.207721  47.2726  38.4058  8.686365
  13084.928  13084.900  0.500  0.214438  47.2246  38.11  8.505447
  13089.112  13089.110  0.500  0.211387  47.1713  38.1834  8.442271
  13093.509  13093.490  0.500  0.205273  47.0505  38.3191  8.527023
  13098.066  13098.050  0.500  0.202430  47.0619  38.4375  8.630325
  13102.768  13102.780  0.500  0.200850  46.9901  38.4395  8.685752
  13107.698  13107.680  0.500  0.197946  46.9314  38.5032  8.719555
  13112.752  13112.750  0.500  0.194353  46.8923  38.6096  8.710965
  13117.976  13117.990  0.500  0.192694  46.7584  38.5633  8.652710
  13123.429  13123.410  0.500  0.193972  46.7703  38.5238  8.648186
  13128.984  13128.990  0.500  0.196882  46.7011  38.355  8.657877
  13134.740  13134.750  0.500  0.199601  46.6333  38.1954  8.658965
  13140.667  13140.680  0.500  0.199309  46.5625  38.1485  8.664400
  13146.757  13146.780  0.500  0.196089  46.4896  38.2116  8.684755
  13153.035  13153.050  0.500  0.192026  46.4009  38.294  8.710639
  13159.431  13159.490  0.500  0.189867  46.3363  38.3233  8.721635
  13166.273  13166.100  0.500  0.189255  46.2473  38.2731  8.725039
  13172.880  13172.890  0.500  0.188519  46.1768  38.2429  8.733165
  13179.827  13179.850  0.500  0.187881  46.0898  38.1953  8.734362
  13186.986  13186.970  0.500  0.187556  46.0072  38.1392  8.736285
  13194.244  13194.270  0.500  0.186543  45.9198  38.1053  8.748329
  13201.769  13201.750  0.500  0.185061  45.8283  38.0858  8.764660
  13209.371  13209.390  0.500  0.184073  45.7416  38.0513  8.774833
  13217.210  13217.200  0.500  0.182806  45.6424  38.0169  8.781705
  13225.174  13225.190  0.500  0.181441  45.5281  37.9735  8.777019
  13233.369  13233.350  0.500  0.180235  45.4535  37.957  8.780831
  13241.650  13241.670  0.500  0.178876  45.3399  37.9137  8.783452
  13250.165  13250.170  0.500  0.177709  45.2253  37.862  8.787571
  13258.843  13258.850  0.500  0.176828  45.0941  37.7854  8.790805
  13267.680  13267.690  0.500  0.175821  44.8894  37.6518  8.774325
  13276.697  13276.700  0.500  0.174527  44.2801  37.1888  8.679524
  13285.866  13285.890  0.500  0.173195  44.1893  37.162  8.686103
  13295.240  13295.250  0.500  0.171744  44.0913  37.1335  8.693229
  13304.790  13304.770  0.500  0.170394  43.9245  37.0429  8.690861
  13314.485  13314.470  0.500  0.169078  43.8911  37.0635  8.716305
  13324.357  13324.350  0.500  0.167416  43.7591  37.0135  8.726266
  13334.384  13334.390  0.500  0.165892  43.663  36.9886  8.742416
  13344.597  13344.600  0.500  0.164093  43.5808  36.9854  8.760421
  13355.012  13354.990  0.500  0.162535  43.5028  36.9768  8.780071
  13365.585  13365.550  0.500  0.161039  43.3727  36.9214  8.789481
  13376.292  13376.280  0.500  0.159399  43.2424  36.8709  8.800047
  13387.211  13387.180  0.500  0.157571  43.13  36.8424  8.819512
  13398.250  13398.250  0.500  0.155863  43.0153  36.8072  8.834929
  13409.505  13409.490  0.500  0.154154  43.099  36.9419  8.890305
  13420.935  13420.910  0.500  0.152182  42.976  36.9091  8.907361
  13432.480  13432.490  0.500  0.150363  42.8451  36.8637  8.921418
  13444.273  13444.250  0.500  0.148592  42.7135  36.8156  8.936078
  13456.198  13456.180  0.500  0.146762  42.5854  36.7724  8.954785
  13468.327  13468.280  0.500  0.144894  42.4511  36.7251  8.971150
  13480.565  13480.550  0.500  0.143038  42.205  36.58  8.960493
  13493.001  13492.990  0.500  0.141038  42.1755  36.6276  9.000253
  13505.635  13505.610  0.500  0.139080  42.0843  36.62  9.027935
  13518.381  13518.390  0.500  0.137137  41.9286  36.5555  9.037022
  13531.358  13531.350  0.500  0.135022  41.7655  36.4904  9.046438
  13544.506  13544.480  0.500  0.133117  41.68  36.4851  9.076958
  13557.807  13557.780  0.500  0.131027  40.8764  35.8565  8.947481
  13571.304  13571.250  0.500  0.129075  41.3768  36.3664  9.107212
  13584.941  13584.900  0.500  0.126903  41.2587  36.3415  9.129522
  13598.726  13598.710  0.500  0.124749  41.1311  36.3071  9.150543
  13612.718  13612.700  0.500  0.122696  40.9552  36.2262  9.161668
  13626.893  13626.860  0.500  0.120317  40.8247  36.1968  9.186351
  13641.228  13641.190  0.500  0.118233  40.6737  36.1381  9.203821
  13655.716  13655.690  0.500  0.116106  40.5415  36.0974  9.227632
  13670.398  13670.360  0.500  0.113840  40.3759  36.0315  9.243768
  13685.235  13685.200  0.500  0.111522  40.2235  35.9788  9.263370
  13700.252  13700.220  0.500  0.109316  40.0645  35.9157  9.280896
  13715.425  13715.400  0.500  0.107021  39.9143  35.8633  9.301959
  13730.806  13730.760  0.500  0.104728  39.7618  35.8083  9.322277
  13746.320  13746.290  0.500  0.102354  39.5914  35.7395  9.338502
  13762.035  13761.990  0.500  0.100084  39.4203  35.666  9.355266
  13777.886  13777.860  0.500  0.097732  39.2543  35.5994  9.373071
  13793.948  13793.910  0.500  0.095318  39.085  35.5315  9.389964
  13810.157  13810.120  0.500  0.092872  38.9221  35.4701  9.411546
  13826.588  13826.510  0.500  0.090463  38.7357  35.3854  9.425454
  13843.033  13843.070  0.500  0.087964  38.5633  35.3161  9.443893
  13859.787  13859.800  0.500  0.085564  38.3735  35.2266  9.458762
  13876.724  13876.700  0.500  0.083096  38.1258  35.0858  9.458139
  13888.098  13888.060  0.500  0.081421  37.8229  34.8653  9.425900