File: xdidata/Pb/Pb-L1-Massicot.xdi
# XDI/1.0 BlueSky/1.10.0 BMM/2023-1.0-py310-tiled
# Beamline.name: BMM (06BM) -- Beamline for Materials Measurement (NIST)
# Beamline.xray_source: NSLS-II three-pole wiggler
# Beamline.collimation: paraboloid mirror, 5 nm Rh on 30 nm Pt
# Beamline.focusing: not in use
# Beamline.harmonic_rejection: flat mirror, Pt stripe, pitch = 7.0 mrad relative to beam
# Beamline.software: Bluesky 1.10.0, Ophyd 1.7.0, DataBroker 2.0.0b13, Python 3.10.8, 2023-1.0-py310-tiled
# Detector.I0: 10 cm N2
# Detector.I1: 25 cm N2
# Detector.I2: 25 cm N2
# Element.symbol: Pb
# Element.edge: L1
# Element.reference: Pb
# Element.reference_material: Pb foil
# Facility.name: NSLS-II
# Facility.energy: 3.0
# Facility.current: 399.5
# Facility.mode: top-off
# Facility.GUP: 301027
# Facility.SAF: 310583
# Facility.cycle: 2023-2
# Mono.name: Si(111)
# Mono.d_spacing: 3.13519
# Mono.encoder_resolution: 0.0000050 deg/ct
# Mono.angle_offset: 16.0754 deg
# Mono.scan_mode: pseudo channel cut
# Mono.scan_type: step
# Mono.direction: forward in energy
# Sample.name: PbO
# Sample.prep: powder on tape
# Sample.x: 143.785 mm
# Sample.y: 114.695 mm
# Sample.SDD_position: 205.000 mm
# Scan.experimenters: Bruce Ravel
# Scan.edge_energy: 15860.8
# Scan.start_time: 2023-06-23T17:55:12
# Scan.end_time: 2023-06-23T18:02:38
# Scan.transient_id: 84916
# Scan.uid: 8301707e-ea06-4c1d-97f1-d206bf05cb18
# Scan.plot_hint: ln(I0/It)  --  ln($5/$6)
# Column.1: energy eV
# Column.2: requested_energy eV
# Column.3: measurement_time seconds
# Column.4: xmu
# Column.5: I0 nA
# Column.6: It nA
# Column.7: Ir nA
# ///////////
# BMM standards collection
# -----------
# energy  requested_energy  measurement_time  xmu  I0  It  Ir
  15660.720  15660.800  0.500  1.255975  24.7515  7.049186  1.961388
  15690.746  15690.800  0.500  1.248507  24.58  7.052826  1.973219
  15720.792  15720.800  0.500  1.240503  24.4049  7.058838  1.984939
  15750.769  15750.800  0.500  1.232902  24.2257  7.060487  1.994839
  15780.774  15780.800  0.500  1.226997  24.0621  7.054336  2.001124
  15810.775  15810.800  0.500  1.223711  23.8881  7.026364  1.998927
  15832.741  15832.800  0.500  1.227992  23.7577  6.958162  1.973298
  15838.748  15838.800  0.500  1.232781  23.7244  6.915197  1.954730
  15844.748  15844.800  0.500  1.242615  23.6858  6.836409  1.920035
  15850.742  15850.800  0.500  1.264683  23.6419  6.674792  1.846969
  15851.600  15851.700  0.500  1.269797  23.633  6.638252  1.830000
  15852.535  15852.600  0.500  1.276618  23.6288  6.591934  1.809584
  15853.449  15853.500  0.500  1.283881  23.6279  6.544004  1.787581
  15854.373  15854.400  0.500  1.292249  23.6288  6.489697  1.762207
  15855.254  15855.300  0.500  1.302185  23.6274  6.425173  1.732525
  15856.179  15856.200  0.500  1.314554  23.6189  6.343889  1.696102
  15857.070  15857.100  0.500  1.328613  23.6132  6.253826  1.656650
  15857.962  15858.000  0.500  1.345423  23.6028  6.146875  1.610102
  15858.887  15858.900  0.500  1.364583  23.5987  6.029178  1.558973
  15859.802  15859.800  0.500  1.386599  23.5884  5.895302  1.503793
  15860.661  15860.700  0.500  1.408368  23.587  5.768020  1.452314
  15861.586  15861.600  0.500  1.431334  23.6775  5.658687  1.405821
  15862.468  15862.500  0.500  1.451090  23.6707  5.546394  1.363763
  15863.382  15863.400  0.500  1.468293  23.6673  5.451018  1.329541
  15864.275  15864.300  0.500  1.480276  23.6594  5.384293  1.306958
  15865.168  15865.200  0.500  1.487569  23.6524  5.343575  1.293888
  15866.071  15866.100  0.500  1.490653  23.6481  5.326160  1.290319
  15866.964  15867.000  0.500  1.489454  23.6411  5.330972  1.294355
  15867.890  15867.900  0.500  1.484914  23.6309  5.352915  1.303406
  15868.773  15868.800  0.500  1.478873  23.6297  5.385075  1.316392
  15869.710  15869.700  0.500  1.471285  23.6229  5.424540  1.330652
  15870.603  15870.600  0.500  1.464136  23.6132  5.461204  1.343202
  15871.497  15871.500  0.500  1.457564  23.6107  5.496636  1.355467
  15872.434  15872.400  0.500  1.451520  23.5975  5.526871  1.364909
  15873.295  15873.300  0.500  1.446939  23.591  5.550706  1.372078
  15874.233  15874.200  0.500  1.442862  23.5821  5.571297  1.377144
  15875.094  15875.100  0.500  1.439341  23.5724  5.588641  1.380093
  15875.999  15876.000  0.500  1.436480  23.5719  5.604530  1.384805
  15876.915  15876.900  0.500  1.433290  23.5685  5.621630  1.387726
  15877.776  15877.800  0.500  1.430461  23.5591  5.635317  1.390239
  15878.714  15878.700  0.500  1.427513  23.5526  5.650372  1.393169
  15879.576  15879.600  0.500  1.424705  23.549  5.665406  1.396277
  15880.492  15880.500  0.500  1.421829  23.5433  5.680360  1.399560
  15881.398  15881.400  0.500  1.419202  23.5334  5.692890  1.402747
  15882.281  15882.300  0.500  1.416594  23.53  5.706938  1.406704
  15883.176  15883.200  0.500  1.414375  23.5271  5.718905  1.411636
  15884.082  15884.100  0.500  1.412614  23.5166  5.726425  1.415111
  15884.999  15885.000  0.500  1.410721  23.5101  5.735704  1.418794
  15885.806  15885.800  0.500  1.409822  23.5105  5.740956  1.422221
  15888.834  15888.810  0.500  1.409113  23.4906  5.740169  1.425886
  15892.041  15892.000  0.500  1.412854  23.4683  5.713307  1.419572
  15895.371  15895.360  0.500  1.419707  23.4497  5.669778  1.407433
  15898.901  15898.880  0.500  1.424735  23.4291  5.636385  1.395804
  15902.588  15902.580  0.500  1.425806  23.4041  5.624352  1.390286
  15906.465  15906.450  0.500  1.425299  23.3783  5.620995  1.390907
  15910.533  15910.500  0.500  1.424445  23.2723  5.600290  1.390291
  15914.702  15914.710  0.500  1.423625  23.3138  5.614884  1.398715
  15919.118  15919.090  0.500  1.420996  23.3147  5.629880  1.403202
  15923.680  15923.650  0.500  1.417472  23.2862  5.642856  1.405513
  15928.379  15928.380  0.500  1.413026  23.2555  5.660516  1.409657
  15933.291  15933.280  0.500  1.409257  23.224  5.674188  1.414235
  15938.351  15938.350  0.500  1.406722  23.1937  5.681181  1.417682
  15943.615  15943.590  0.500  1.405580  23.1585  5.679029  1.419727
  15948.994  15949.010  0.500  1.405088  22.9616  5.633523  1.411132
  15954.599  15954.590  0.500  1.405087  23.1064  5.669042  1.421670
  15960.353  15960.350  0.500  1.403526  23.0671  5.668245  1.422469
  15966.268  15966.280  0.500  1.402014  23.0331  5.668474  1.423286
  15972.400  15972.380  0.500  1.400878  22.9972  5.666066  1.425142
  15978.636  15978.650  0.500  1.399302  22.9508  5.663553  1.426650
  15985.102  15985.090  0.500  1.396945  22.7323  5.622877  1.418877
  15991.730  15991.700  0.500  1.394448  22.8981  5.678044  1.435137
  15998.497  15998.490  0.500  1.391459  22.8507  5.683244  1.438617
  16005.473  16005.450  0.500  1.388281  22.805  5.689940  1.441809
  16012.589  16012.570  0.500  1.386244  22.7643  5.691370  1.444401
  16019.925  16019.870  0.500  1.383972  22.7101  5.690718  1.446785
  16027.347  16027.350  0.500  1.381408  22.5887  5.674826  1.444902
  16035.012  16034.990  0.500  1.379249  22.6423  5.700596  1.454506
  16042.809  16042.800  0.500  1.376813  22.5986  5.703484  1.456493
  16050.816  16050.790  0.500  1.374690  22.55  5.703304  1.459931
  16058.967  16058.950  0.500  1.372324  22.508  5.706165  1.462228
  16067.296  16067.270  0.500  1.370289  22.459  5.705343  1.464293
  16075.792  16075.770  0.500  1.368023  22.3749  5.696859  1.464974
  16084.467  16084.450  0.500  1.365627  22.4302  5.724654  1.474974
  16093.322  16093.290  0.500  1.362184  22.3724  5.729579  1.478553
  16102.300  16102.300  0.500  1.359433  22.3179  5.731369  1.481998
  16111.527  16111.490  0.500  1.355967  22.2731  5.739738  1.486883
  16120.856  16120.850  0.500  1.353078  22.2062  5.739043  1.489849
  16130.355  16130.370  0.500  1.350723  22.1693  5.743024  1.494060
  16140.116  16140.070  0.500  1.347784  22.1102  5.744581  1.496834
  16149.947  16149.950  0.500  1.344807  22.058  5.748094  1.500412
  16160.029  16159.990  0.500  1.341725  22.0001  5.750703  1.504673
  16170.251  16170.200  0.500  1.338263  21.9418  5.755354  1.508845
  16180.611  16180.590  0.500  1.335445  21.8869  5.757145  1.512685
  16191.203  16191.150  0.500  1.332400  21.8324  5.760331  1.516972
  16201.925  16201.880  0.500  1.329095  21.7697  5.762798  1.521133
  16212.810  16212.780  0.500  1.325775  21.7096  5.766008  1.525340
  16223.859  16223.850  0.500  1.322214  21.6519  5.771203  1.530661
  16235.098  16235.090  0.500  1.318554  21.5421  5.762993  1.531293
  16246.536  16246.510  0.500  1.315060  21.5225  5.777881  1.538578
  16258.142  16258.090  0.500  1.311774  21.4594  5.779919  1.543836
  16269.869  16269.850  0.500  1.308232  21.3978  5.783773  1.547787
  16281.845  16281.780  0.500  1.304692  21.3365  5.787662  1.551826
  16293.920  16293.880  0.500  1.300954  21.2719  5.791740  1.557436
  16306.188  16306.150  0.500  1.297304  21.1547  5.780889  1.558288
  16318.615  16318.590  0.500  1.293626  21.136  5.797074  1.566282
  16331.282  16331.210  0.500  1.290337  21.0721  5.798585  1.570730
  16344.052  16343.990  0.500  1.286428  20.9986  5.800989  1.575458
  16356.959  16356.950  0.500  1.282900  20.9358  5.804080  1.579892
  16370.109  16370.080  0.500  1.278701  20.8387  5.801471  1.583814
  16383.434  16383.380  0.500  1.274820  20.7925  5.811113  1.590225
  16396.910  16396.850  0.500  1.270785  20.7143  5.812659  1.593705
  16410.562  16410.500  0.500  1.266939  20.6398  5.814086  1.600090
  16424.366  16424.310  0.500  1.263300  20.572  5.816114  1.603985
  16438.360  16438.300  0.500  1.258985  20.4844  5.816385  1.608698
  16452.509  16452.460  0.500  1.255083  20.4213  5.821124  1.613886
  16466.824  16466.790  0.500  1.251077  20.3517  5.824579  1.619662
  16481.319  16481.290  0.500  1.246484  20.2597  5.824957  1.624127
  16496.007  16495.960  0.500  1.242504  20.1942  5.829269  1.628944
  16510.817  16510.800  0.500  1.238384  20.1105  5.829063  1.634141
  16525.882  16525.820  0.500  1.234108  20.0287  5.830237  1.639213
  16541.021  16541.000  0.500  1.229933  19.9536  5.832672  1.645490
  16556.393  16556.360  0.500  1.225467  19.8733  5.835206  1.650199
  16571.914  16571.890  0.500  1.221151  19.7931  5.836789  1.655600
  16587.634  16587.590  0.500  1.216790  19.704  5.835913  1.660385
  16603.480  16603.460  0.500  1.212442  19.6181  5.835807  1.664810
  16619.574  16619.510  0.500  1.208032  19.5309  5.835524  1.669822
  16635.760  16635.720  0.500  1.203387  19.4473  5.837608  1.675223
  16652.112  16652.110  0.500  1.198865  19.3491  5.834443  1.679471
  16668.716  16668.670  0.500  1.194568  19.2647  5.834010  1.684353
  16685.450  16685.400  0.500  1.189999  19.1543  5.827139  1.686956
  16702.328  16702.300  0.500  1.185212  19.0046  5.809362  1.686893
  16713.718  16713.660  0.500  1.181780  18.1461  5.565996  1.618226