File: xdidata/Fe/Fe-Aegerine.xdi
# XDI/1.0 BlueSky/1.10.0 BMM/2023-1.0-py310-tiled
# Beamline.name: BMM (06BM) -- Beamline for Materials Measurement (NIST)
# Beamline.xray_source: NSLS-II three-pole wiggler
# Beamline.collimation: paraboloid mirror, 5 nm Rh on 30 nm Pt
# Beamline.focusing: not in use
# Beamline.harmonic_rejection: flat mirror, Si stripe, pitch = 7.0 mrad relative to beam
# Beamline.software: Bluesky 1.10.0, Ophyd 1.7.0, DataBroker 2.0.0b13, Python 3.10.8, 2023-1.0-py310-tiled
# Detector.I0: 10 cm N2
# Detector.I1: 25 cm N2
# Detector.I2: 25 cm N2
# Element.symbol: Fe
# Element.edge: K
# Element.reference: Fe
# Element.reference_material: Fe foil
# Facility.name: NSLS-II
# Facility.energy: 3.0
# Facility.current: 399.1
# Facility.mode: top-off
# Facility.GUP: 123456
# Facility.SAF: 301027
# Facility.cycle: 2023-2
# Mono.name: Si(111)
# Mono.d_spacing: 3.13519
# Mono.encoder_resolution: 0.0000050 deg/ct
# Mono.angle_offset: 16.0754 deg
# Mono.scan_mode: pseudo channel cut
# Mono.scan_type: step
# Mono.direction: forward in energy
# Sample.name: NaFeSi2O6
# Sample.prep: PEG pellet
# Sample.x: 116.329 mm
# Sample.y: 114.126 mm
# Sample.SDD_position: 205.000 mm
# Scan.experimenters: Bruce Ravel
# Scan.edge_energy: 7112.0
# Scan.start_time: 2023-05-05T18:14:53
# Scan.end_time: 2023-05-05T18:22:55
# Scan.transient_id: 74546
# Scan.uid: ef611f40-a351-4c09-8037-43cde6b3e65a
# Scan.plot_hint: ln(I0/It)  --  ln($5/$6)
# Column.1: energy eV
# Column.2: requested_energy eV
# Column.3: measurement_time seconds
# Column.4: xmu
# Column.5: I0 nA
# Column.6: It nA
# Column.7: Ir nA
# ///////////
# courtesy Martin Stennett, University of Sheffield
# -----------
# energy  requested_energy  measurement_time  xmu  I0  It  Ir
  6912.009  6912.000  0.500  3.361038  153.104  5.312572  0.997334
  6942.011  6942.000  0.500  3.311168  153.031  5.581581  1.070015
  6972.010  6972.000  0.500  3.263056  153.543  5.876266  1.149899
  7002.013  7002.000  0.500  3.214679  153.462  6.164278  1.230999
  7032.014  7032.000  0.500  3.167768  153.315  6.454158  1.314358
  7062.008  7062.000  0.500  3.122386  152.456  6.715985  1.391902
  7083.983  7084.000  0.500  3.090366  152.709  6.946028  1.452179
  7089.985  7090.000  0.500  3.082188  152.828  7.008487  1.466298
  7096.016  7096.000  0.500  3.074818  152.762  7.057299  1.473153
  7102.003  7102.000  0.500  3.068544  152.723  7.099917  1.469302
  7102.889  7102.900  0.500  3.067909  152.727  7.104610  1.466311
  7103.785  7103.800  0.500  3.067175  152.704  7.108727  1.462895
  7104.686  7104.700  0.500  3.066441  152.706  7.114050  1.457473
  7105.584  7105.600  0.500  3.065972  152.703  7.117249  1.451014
  7106.490  7106.500  0.500  3.065541  152.641  7.117425  1.440553
  7107.387  7107.400  0.500  3.065443  152.641  7.118134  1.427385
  7108.289  7108.300  0.500  3.065711  152.638  7.116072  1.405604
  7109.188  7109.200  0.500  3.065793  152.606  7.114000  1.369742
  7110.093  7110.100  0.500  3.066924  152.556  7.103658  1.292653
  7110.999  7111.000  0.500  3.069689  152.495  7.081189  1.089870
  7111.887  7111.900  0.500  3.076002  152.372  7.030974  0.785913
  7112.790  7112.800  0.500  3.089851  152.275  6.929853  0.604756
  7113.701  7113.700  0.500  3.103664  152.252  6.833760  0.508434
  7114.598  7114.600  0.500  3.110121  152.22  6.788341  0.444791
  7115.495  7115.500  0.500  3.095731  152.204  6.885987  0.421180
  7116.393  7116.400  0.500  3.087891  152.14  6.937282  0.411435
  7117.297  7117.300  0.500  3.095373  152.127  6.884983  0.381826
  7118.201  7118.200  0.500  3.113124  152.066  6.761124  0.316774
  7119.097  7119.100  0.500  3.142538  152.036  6.563868  0.244448
  7119.998  7120.000  0.500  3.188126  151.997  6.269760  0.183104
  7120.894  7120.900  0.500  3.257458  151.971  5.848765  0.131720
  7121.799  7121.800  0.500  3.347971  151.885  5.339620  0.095650
  7122.702  7122.700  0.500  3.475798  151.84  4.697504  0.070681
  7123.600  7123.600  0.500  3.656861  151.816  3.918892  0.051656
  7124.497  7124.500  0.500  3.825703  151.778  3.309236  0.039144
  7125.401  7125.400  0.500  3.943519  151.704  2.940003  0.031588
  7126.299  7126.300  0.500  4.048313  151.621  2.646059  0.025939
  7127.208  7127.200  0.500  4.211194  151.535  2.247058  0.020039
  7128.099  7128.100  0.500  4.388349  151.505  1.881874  0.014693
  7128.996  7129.000  0.500  4.508726  151.447  1.667806  0.011254
  7129.903  7129.900  0.500  4.580254  151.348  1.551663  0.009171
  7130.802  7130.800  0.500  4.621682  151.239  1.487619  0.008001
  7131.701  7131.700  0.500  4.669893  151.183  1.417080  0.007860
  7132.603  7132.600  0.500  4.698125  151.113  1.376991  0.008409
  7133.498  7133.500  0.500  4.682571  151.11  1.398549  0.009639
  7134.403  7134.400  0.500  4.655881  151.104  1.436327  0.011083
  7135.303  7135.300  0.500  4.624336  151.101  1.482325  0.012391
  7136.201  7136.200  0.500  4.582564  151.559  1.550238  0.013401
  7136.996  7137.000  0.500  4.543062  151.532  1.612416  0.014139
  7140.021  7140.010  0.500  4.400122  151.506  1.859864  0.014602
  7143.192  7143.200  0.500  4.300926  151.482  2.053488  0.015695
  7146.565  7146.560  0.500  4.254545  151.469  2.150798  0.015973
  7150.089  7150.080  0.500  4.165468  151.439  2.350708  0.014690
  7153.786  7153.780  0.500  4.046412  151.441  2.647944  0.015471
  7157.650  7157.650  0.500  3.990571  151.39  2.799078  0.017025
  7161.705  7161.700  0.500  3.978429  151.283  2.831271  0.017451
  7165.917  7165.910  0.500  4.034223  151.166  2.675557  0.017350
  7170.296  7170.290  0.500  4.112991  151.079  2.471462  0.016752
  7174.851  7174.850  0.500  4.174790  150.996  2.322076  0.018013
  7179.587  7179.580  0.500  4.198738  150.92  2.265997  0.020101
  7184.492  7184.480  0.500  4.180786  150.824  2.305564  0.020026
  7189.561  7189.550  0.500  4.174406  150.723  2.318776  0.017405
  7194.798  7194.790  0.500  4.162573  150.552  2.343720  0.015395
  7200.222  7200.210  0.500  4.134331  150.425  2.408814  0.018087
  7205.803  7205.790  0.500  4.097536  150.297  2.496965  0.023515
  7211.562  7211.550  0.500  4.075228  150.169  2.551126  0.021514
  7217.489  7217.480  0.500  4.049598  149.974  2.613949  0.013491
  7223.588  7223.580  0.500  4.027700  149.824  2.669157  0.013225
  7229.864  7229.850  0.500  4.016833  149.908  2.699825  0.019964
  7236.301  7236.290  0.500  4.011585  149.739  2.710972  0.027819
  7242.912  7242.900  0.500  4.005731  149.635  2.724998  0.027687
  7249.703  7249.690  0.500  4.015107  149.347  2.694373  0.024504
  7256.664  7256.650  0.500  4.020655  149.326  2.679093  0.025741
  7263.784  7263.770  0.500  4.008215  137.465  2.497159  0.022410
  7271.085  7271.070  0.500  3.989619  149.518  2.767087  0.022635
  7278.562  7278.550  0.500  3.975425  149.49  2.806118  0.020672
  7286.198  7286.190  0.500  3.958839  149.053  2.844712  0.018849
  7294.014  7294.000  0.500  3.939774  149.084  2.900070  0.021605
  7301.997  7301.990  0.500  3.920535  147.276  2.920552  0.027999
  7310.157  7310.150  0.500  3.903585  148.872  3.002664  0.032000
  7318.481  7318.470  0.500  3.884770  148.686  3.055872  0.032544
  7326.987  7326.970  0.500  3.869904  148.532  3.098431  0.033322
  7335.658  7335.650  0.500  3.856304  148.291  3.135759  0.035385
  7344.504  7344.490  0.500  3.841441  148.02  3.176893  0.034522
  7353.517  7353.500  0.500  3.827648  147.884  3.218054  0.030100
  7362.700  7362.690  0.500  3.812785  147.673  3.261587  0.027300
  7372.065  7372.050  0.500  3.799245  147.462  3.301337  0.028762
  7381.584  7381.570  0.500  3.784733  147.236  3.344450  0.038282
  7391.279  7391.270  0.500  3.767737  147.02  3.396797  0.042647
  7401.155  7401.150  0.500  3.750765  146.72  3.447874  0.042037
  7411.201  7411.190  0.500  3.727304  146.516  3.524815  0.042966
  7421.408  7421.400  0.500  3.709034  146.229  3.582772  0.044313
  7431.798  7431.790  0.500  3.694006  146.327  3.639460  0.046696
  7442.357  7442.350  0.500  3.676258  146.144  3.699995  0.045118
  7453.095  7453.080  0.500  3.659870  144.798  3.726505  0.042844
  7463.988  7463.980  0.500  3.642208  145.592  3.813710  0.045004
  7475.058  7475.050  0.500  3.623663  145.424  3.880608  0.050055
  7486.303  7486.290  0.500  3.606597  144.962  3.934861  0.054603
  7497.741  7497.710  0.500  3.588462  144.708  3.999843  0.058553
  7509.307  7509.290  0.500  3.570322  144.286  4.061178  0.058690
  7521.076  7521.050  0.500  3.553242  143.888  4.119748  0.060846
  7533.002  7532.980  0.500  3.536326  143.521  4.179350  0.061627
  7545.115  7545.080  0.500  3.517287  143.056  4.245892  0.063809
  7557.343  7557.350  0.500  3.497635  142.669  4.318422  0.064757
  7569.811  7569.790  0.500  3.477911  142.241  4.391224  0.065768
  7582.407  7582.410  0.500  3.458923  141.771  4.460623  0.071076
  7595.182  7595.190  0.500  3.441114  141.114  4.519744  0.074712
  7608.172  7608.150  0.500  3.422366  140.051  4.570577  0.076782
  7621.302  7621.280  0.500  3.403296  139.862  4.652292  0.080088
  7634.576  7634.580  0.500  3.384502  139.651  4.733386  0.082686
  7648.035  7648.050  0.500  3.364354  139.148  4.812349  0.087257
  7661.713  7661.700  0.500  3.345657  138.59  4.883499  0.090167
  7675.491  7675.510  0.500  3.325863  137.986  4.959418  0.091389
  7689.488  7689.500  0.500  3.306279  137.61  5.043710  0.093997
  7703.647  7703.660  0.500  3.287109  136.843  5.112673  0.098467
  7717.980  7717.990  0.500  3.267301  136.258  5.192685  0.103218
  7732.508  7732.490  0.500  3.247593  135.673  5.273296  0.107281
  7747.147  7747.160  0.500  3.227450  135.16  5.360230  0.111189
  7761.977  7762.000  0.500  3.207453  134.521  5.442660  0.115211
  7777.016  7777.020  0.500  3.187191  133.906  5.528687  0.120284
  7792.190  7792.200  0.500  3.167356  133.358  5.616355  0.125093
  7807.564  7807.560  0.500  3.147728  132.692  5.699062  0.128864
  7823.078  7823.090  0.500  3.127869  132.046  5.785074  0.133046
  7838.786  7838.790  0.500  3.107884  131.084  5.858848  0.137308
  7854.640  7854.660  0.500  3.087574  129.786  5.919881  0.141684
  7870.685  7870.710  0.500  3.067433  130.042  6.052195  0.148659
  7886.931  7886.920  0.500  3.047115  129.351  6.143637  0.154767
  7903.297  7903.310  0.500  3.026894  128.602  6.232804  0.160616
  7919.895  7919.870  0.500  3.006820  127.827  6.320865  0.166617
  7936.578  7936.600  0.500  2.986798  126.861  6.399975  0.172365
  7953.479  7953.500  0.500  2.966470  126.204  6.497572  0.177825
  7964.837  7964.860  0.500  2.952911  125.651  6.557406  0.181889