File: xdidata/Fe/Fe-Cordierite.xdi
# XDI/1.0 BlueSky/1.10.0 BMM/2023-1.0-py310-tiled
# Beamline.name: BMM (06BM) -- Beamline for Materials Measurement (NIST)
# Beamline.xray_source: NSLS-II three-pole wiggler
# Beamline.collimation: paraboloid mirror, 5 nm Rh on 30 nm Pt
# Beamline.focusing: not in use
# Beamline.harmonic_rejection: flat mirror, Si stripe, pitch = 7.0 mrad relative to beam
# Beamline.software: Bluesky 1.10.0, Ophyd 1.7.0, DataBroker 2.0.0b13, Python 3.10.8, 2023-1.0-py310-tiled
# Detector.I0: 10 cm N2
# Detector.I1: 25 cm N2
# Detector.I2: 25 cm N2
# Element.symbol: Fe
# Element.edge: K
# Element.reference: Fe
# Element.reference_material: Fe foil
# Facility.name: NSLS-II
# Facility.energy: 3.0
# Facility.current: 400.6
# Facility.mode: top-off
# Facility.GUP: 123456
# Facility.SAF: 301027
# Facility.cycle: 2023-2
# Mono.name: Si(111)
# Mono.d_spacing: 3.13519
# Mono.encoder_resolution: 0.0000050 deg/ct
# Mono.angle_offset: 16.0754 deg
# Mono.scan_mode: pseudo channel cut
# Mono.scan_type: step
# Mono.direction: forward in energy
# Sample.name: (Mg,Fe)2Al3(Si5AlO18)
# Sample.prep: PEG pellet
# Sample.x: 142.329 mm
# Sample.y: 114.126 mm
# Sample.SDD_position: 205.000 mm
# Scan.experimenters: Bruce Ravel
# Scan.edge_energy: 7112.0
# Scan.start_time: 2023-05-05T20:28:51
# Scan.end_time: 2023-05-05T20:36:59
# Scan.transient_id: 74621
# Scan.uid: 04007833-a65d-45b8-aab0-d5fc016a674d
# Scan.plot_hint: ln(I0/It)  --  ln($5/$6)
# Column.1: energy eV
# Column.2: requested_energy eV
# Column.3: measurement_time seconds
# Column.4: xmu
# Column.5: I0 nA
# Column.6: It nA
# Column.7: Ir nA
# ///////////
# courtesy Martin Stennett, University of Sheffield
# -----------
# energy  requested_energy  measurement_time  xmu  I0  It  Ir
  6912.011  6912.000  0.500  1.629147  154.653  30.3269  5.692802
  6942.015  6942.000  0.500  1.599980  154.453  31.1842  5.978719
  6972.016  6972.000  0.500  1.571148  154.417  32.0889  6.282095
  7002.015  7002.000  0.500  1.542797  154.294  32.9853  6.588100
  7032.014  7032.000  0.500  1.515058  154.105  33.8716  6.899112
  7062.012  7062.000  0.500  1.487701  153.174  34.6007  7.173620
  7083.993  7084.000  0.500  1.468152  153.411  35.3384  7.391177
  7089.992  7090.000  0.500  1.462993  153.516  35.5455  7.437979
  7095.984  7096.000  0.500  1.458033  153.468  35.7109  7.456917
  7102.003  7102.000  0.500  1.452726  153.364  35.8766  7.427120
  7102.889  7102.900  0.500  1.451814  153.34  35.9039  7.413973
  7103.785  7103.800  0.500  1.451253  153.309  35.9166  7.392409
  7104.688  7104.700  0.500  1.450475  153.29  35.9401  7.367614
  7105.589  7105.600  0.500  1.450078  153.265  35.9487  7.330205
  7106.490  7106.500  0.500  1.449082  153.249  35.9807  7.285266
  7107.387  7107.400  0.500  1.448393  153.244  36.0044  7.219721
  7108.289  7108.300  0.500  1.447991  153.192  36.0067  7.112848
  7109.193  7109.200  0.500  1.447434  153.186  36.0252  6.938781
  7110.095  7110.100  0.500  1.446647  153.165  36.0485  6.570635
  7110.997  7111.000  0.500  1.447021  153.092  36.0181  5.568796
  7111.891  7111.900  0.500  1.446960  153.02  36.0033  4.034520
  7112.786  7112.800  0.500  1.446251  152.93  36.0076  3.151005
  7113.699  7113.700  0.500  1.445716  152.885  36.0164  2.684406
  7114.598  7114.600  0.500  1.444673  152.874  36.0513  2.364219
  7115.498  7115.500  0.500  1.444141  152.842  36.0629  2.206611
  7116.393  7116.400  0.500  1.444380  152.812  36.0472  2.137584
  7117.295  7117.300  0.500  1.445959  152.773  35.9812  1.998557
  7118.203  7118.200  0.500  1.450949  152.728  35.7914  1.680835
  7119.101  7119.100  0.500  1.462539  152.69  35.3703  1.319766
  7120.000  7120.000  0.500  1.480114  152.637  34.742  1.016928
  7120.894  7120.900  0.500  1.492598  152.591  34.3007  0.771588
  7121.797  7121.800  0.500  1.507225  153.058  33.906  0.607007
  7122.705  7122.700  0.500  1.518437  153.014  33.5183  0.502277
  7123.597  7123.600  0.500  1.523148  152.967  33.3506  0.436311
  7124.497  7124.500  0.500  1.541288  152.91  32.7389  0.384087
  7125.403  7125.400  0.500  1.582600  152.907  31.4133  0.334348
  7126.301  7126.300  0.500  1.624558  152.842  30.1096  0.292038
  7127.208  7127.200  0.500  1.611690  152.739  30.4792  0.265493
  7128.102  7128.100  0.500  1.567302  152.688  31.8518  0.244344
  7128.994  7129.000  0.500  1.540021  152.625  32.7193  0.216591
  7129.901  7129.900  0.500  1.530035  152.555  33.0324  0.188911
  7130.802  7130.800  0.500  1.527797  152.458  33.0854  0.173604
  7131.708  7131.700  0.500  1.525034  152.408  33.166  0.176079
  7132.601  7132.600  0.500  1.522497  152.359  33.2396  0.194857
  7133.496  7133.500  0.500  1.519664  152.348  33.3316  0.222422
  7134.403  7134.400  0.500  1.518136  152.357  33.3844  0.250148
  7135.298  7135.300  0.500  1.521704  152.341  33.2621  0.269567
  7136.201  7136.200  0.500  1.524766  152.316  33.155  0.281117
  7136.996  7137.000  0.500  1.525309  152.303  33.134  0.284021
  7140.030  7140.010  0.500  1.511797  152.294  33.5829  0.257713
  7143.186  7143.200  0.500  1.496876  152.283  34.0853  0.255098
  7146.563  7146.560  0.500  1.486032  152.267  34.4533  0.251446
  7150.085  7150.080  0.500  1.475130  152.231  34.8227  0.211868
  7153.782  7153.780  0.500  1.475467  152.201  34.804  0.199371
  7157.652  7157.650  0.500  1.483304  152.141  34.5188  0.206430
  7161.705  7161.700  0.500  1.491380  152.057  34.2223  0.207835
  7165.911  7165.910  0.500  1.493797  151.938  34.1129  0.218882
  7170.299  7170.290  0.500  1.489751  151.852  34.2319  0.228893
  7174.856  7174.850  0.500  1.481445  151.734  34.4906  0.261537
  7179.592  7179.580  0.500  1.473579  151.67  34.7482  0.303967
  7184.490  7184.480  0.500  1.470732  151.582  34.827  0.298399
  7189.559  7189.550  0.500  1.464189  151.51  35.0391  0.259378
  7194.801  7194.790  0.500  1.457161  151.303  35.2379  0.227290
  7200.219  7200.210  0.500  1.452315  151.201  35.3853  0.261554
  7205.801  7205.790  0.500  1.447849  151.086  35.5167  0.329165
  7211.564  7211.550  0.500  1.444214  150.906  35.6035  0.297498
  7217.491  7217.480  0.500  1.438761  150.74  35.7588  0.181284
  7223.588  7223.580  0.500  1.430867  150.587  36.0056  0.172901
  7229.860  7229.850  0.500  1.426033  150.63  36.1903  0.262997
  7236.308  7236.290  0.500  1.423829  150.432  36.2227  0.368579
  7242.912  7242.900  0.500  1.420250  150.305  36.3217  0.366916
  7249.699  7249.690  0.500  1.414396  150.056  36.4744  0.327513
  7256.662  7256.650  0.500  1.408230  150.009  36.6887  0.349942
  7263.787  7263.770  0.500  1.401644  138.908  34.1981  0.305939
  7271.081  7271.070  0.500  1.394715  150.176  37.2291  0.301960
  7278.559  7278.550  0.500  1.386649  150.102  37.5123  0.273861
  7286.205  7286.190  0.500  1.380313  149.679  37.6441  0.248086
  7294.014  7294.000  0.500  1.373786  150.152  38.0106  0.277933
  7302.006  7301.990  0.500  1.367558  148.206  37.7523  0.360073
  7310.161  7310.150  0.500  1.360526  149.93  38.4609  0.406062
  7318.486  7318.470  0.500  1.354244  149.726  38.6505  0.409204
  7326.978  7326.970  0.500  1.347637  149.552  38.8615  0.415363
  7335.663  7335.650  0.500  1.341003  149.377  39.0746  0.437764
  7344.500  7344.490  0.500  1.333561  149.121  39.2988  0.425677
  7353.517  7353.500  0.500  1.326389  148.945  39.5352  0.365506
  7362.703  7362.690  0.500  1.318685  148.733  39.784  0.330168
  7372.065  7372.050  0.500  1.309873  148.516  40.0778  0.347242
  7381.584  7381.570  0.500  1.302336  148.27  40.314  0.458881
  7391.284  7391.270  0.500  1.295029  148.056  40.5511  0.507731
  7401.164  7401.150  0.500  1.287491  147.814  40.7911  0.494609
  7411.201  7411.190  0.500  1.279735  147.558  41.0374  0.497880
  7421.406  7421.400  0.500  1.272130  147.256  41.2662  0.508366
  7431.798  7431.790  0.500  1.263841  146.986  41.5335  0.531117
  7442.354  7442.350  0.500  1.255625  146.595  41.7645  0.508918
  7453.088  7453.080  0.500  1.247189  145.174  41.7102  0.478927
  7463.990  7463.980  0.500  1.239165  146.123  42.321  0.497674
  7475.060  7475.050  0.500  1.230681  145.93  42.6251  0.548980
  7486.300  7486.290  0.500  1.222343  145.513  42.8594  0.593582
  7497.727  7497.710  0.500  1.214032  145.195  43.1226  0.629990
  7509.302  7509.290  0.500  1.205168  144.795  43.3865  0.626833
  7521.071  7521.050  0.500  1.197035  144.428  43.63  0.642270
  7532.994  7532.980  0.500  1.187842  144.022  43.9091  0.646856
  7545.100  7545.080  0.500  1.179231  143.582  44.1535  0.663013
  7557.368  7557.350  0.500  1.170629  143.147  44.4001  0.664969
  7569.823  7569.790  0.500  1.161774  142.74  44.6676  0.667422
  7582.417  7582.410  0.500  1.152676  142.268  44.9269  0.714987
  7595.209  7595.190  0.500  1.143510  141.656  45.1457  0.744495
  7608.162  7608.150  0.500  1.134488  140.625  45.223  0.759750
  7621.299  7621.280  0.500  1.125434  140.46  45.5808  0.784910
  7634.603  7634.580  0.500  1.116007  140.219  45.9336  0.801940
  7648.035  7648.050  0.500  1.107100  139.71  46.1766  0.837005
  7661.688  7661.700  0.500  1.097471  139.162  46.4404  0.855712
  7675.498  7675.510  0.500  1.088045  138.617  46.6967  0.860364
  7689.523  7689.500  0.500  1.078702  138.281  47.0205  0.876613
  7703.652  7703.660  0.500  1.069558  137.482  47.1783  0.906959
  7717.980  7717.990  0.500  1.059801  136.931  47.4501  0.942096
  7732.470  7732.490  0.500  1.050546  136.348  47.6871  0.969153
  7747.178  7747.160  0.500  1.040658  135.882  47.9966  0.995587
  7762.016  7762.000  0.500  1.031465  135.226  48.2061  1.020685
  7777.047  7777.020  0.500  1.021457  134.574  48.456  1.055870
  7792.190  7792.200  0.500  1.011725  133.995  48.7194  1.084404
  7807.540  7807.560  0.500  1.002092  133.347  48.953  1.106911
  7823.073  7823.090  0.500  0.992367  132.697  49.1907  1.131365
  7838.775  7838.790  0.500  0.982508  132.078  49.446  1.158014
  7854.645  7854.660  0.500  0.972708  130.868  49.4758  1.184160
  7870.698  7870.710  0.500  0.962877  131.074  50.0431  1.228597
  7886.891  7886.920  0.500  0.953010  130.361  50.2644  1.265604
  7903.284  7903.310  0.500  0.943194  129.605  50.466  1.300492
  7919.846  7919.870  0.500  0.933383  128.861  50.6708  1.334863
  7936.583  7936.600  0.500  0.923462  127.902  50.7952  1.365290
  7953.477  7953.500  0.500  0.913592  127.22  51.0253  1.395990
  7964.835  7964.860  0.500  0.907266  126.632  51.1122  1.416701