File: xdidata/Fe/Fe-Chondrodite.xdi
# XDI/1.0 BlueSky/1.10.0 BMM/2023-1.0-py310-tiled
# Beamline.name: BMM (06BM) -- Beamline for Materials Measurement (NIST)
# Beamline.xray_source: NSLS-II three-pole wiggler
# Beamline.collimation: paraboloid mirror, 5 nm Rh on 30 nm Pt
# Beamline.focusing: not in use
# Beamline.harmonic_rejection: flat mirror, Si stripe, pitch = 7.0 mrad relative to beam
# Beamline.software: Bluesky 1.10.0, Ophyd 1.7.0, DataBroker 2.0.0b13, Python 3.10.8, 2023-1.0-py310-tiled
# Detector.I0: 10 cm N2
# Detector.I1: 25 cm N2
# Detector.I2: 25 cm N2
# Element.symbol: Fe
# Element.edge: K
# Element.reference: Fe
# Element.reference_material: Fe foil
# Facility.name: NSLS-II
# Facility.energy: 3.0
# Facility.current: 399.8
# Facility.mode: top-off
# Facility.GUP: 123456
# Facility.SAF: 301027
# Facility.cycle: 2023-2
# Mono.name: Si(111)
# Mono.d_spacing: 3.13519
# Mono.encoder_resolution: 0.0000050 deg/ct
# Mono.angle_offset: 16.0754 deg
# Mono.scan_mode: pseudo channel cut
# Mono.scan_type: step
# Mono.direction: forward in energy
# Sample.name: (Mg,Fe)5(SiO)2(F,OH,O)2
# Sample.prep: PEG pellet
# Sample.x: 142.329 mm
# Sample.y: 114.126 mm
# Sample.SDD_position: 205.000 mm
# Scan.experimenters: Bruce Ravel
# Scan.edge_energy: 7112.0
# Scan.start_time: 2023-05-05T20:19:46
# Scan.end_time: 2023-05-05T20:28:06
# Scan.transient_id: 74616
# Scan.uid: ca4c7060-7cb4-4ca4-b453-f85e409dfc8f
# Scan.plot_hint: ln(I0/It)  --  ln($5/$6)
# Column.1: energy eV
# Column.2: requested_energy eV
# Column.3: measurement_time seconds
# Column.4: xmu
# Column.5: I0 nA
# Column.6: It nA
# Column.7: Ir nA
# ///////////
# courtesy Martin Stennett, University of Sheffield
# -----------
# energy  requested_energy  measurement_time  xmu  I0  It  Ir
  6912.005  6912.000  0.500  1.783946  154.416  25.9379  4.866984
  6942.031  6942.000  0.500  1.753034  154.219  26.7181  5.121063
  6972.012  6972.000  0.500  1.722590  154.17  27.5352  5.388093
  7002.011  7002.000  0.500  1.692516  154.565  28.4486  5.681004
  7032.010  7032.000  0.500  1.663066  154.371  29.2621  5.958861
  7062.008  7062.000  0.500  1.634085  153.455  29.9439  6.205416
  7083.983  7084.000  0.500  1.613728  153.643  30.597  6.398246
  7089.985  7090.000  0.500  1.608432  153.748  30.7806  6.438595
  7096.528  7096.000  0.500  1.602717  153.647  30.9366  6.456099
  7101.986  7102.000  0.500  1.598251  153.579  31.0613  6.427080
  7102.884  7102.900  0.500  1.597423  153.561  31.0835  6.416085
  7103.793  7103.800  0.500  1.596860  153.518  31.0923  6.397377
  7104.683  7104.700  0.500  1.596030  153.497  31.1137  6.375409
  7105.589  7105.600  0.500  1.595541  153.478  31.1251  6.344875
  7106.490  7106.500  0.500  1.594923  153.43  31.1346  6.302455
  7107.389  7107.400  0.500  1.594452  153.401  31.1435  6.244369
  7108.284  7108.300  0.500  1.594019  153.365  31.1497  6.153317
  7109.191  7109.200  0.500  1.593707  153.336  31.1535  6.000837
  7110.088  7110.100  0.500  1.593846  153.282  31.1382  5.674826
  7110.995  7111.000  0.500  1.595455  153.229  31.0774  4.808032
  7111.889  7111.900  0.500  1.597313  153.117  30.9971  3.479744
  7112.786  7112.800  0.500  1.596713  153.056  31.0031  2.716590
  7113.697  7113.700  0.500  1.596610  153.013  30.9977  2.313697
  7114.598  7114.600  0.500  1.595685  152.968  31.0172  2.037247
  7115.500  7115.500  0.500  1.595911  152.918  31  1.899138
  7116.393  7116.400  0.500  1.598657  152.894  30.9103  1.835433
  7117.293  7117.300  0.500  1.605073  152.845  30.7028  1.707856
  7118.203  7118.200  0.500  1.621946  152.797  30.1795  1.420079
  7119.097  7119.100  0.500  1.662766  152.752  28.9638  1.084976
  7120.000  7120.000  0.500  1.728007  152.722  27.1293  0.797455
  7120.896  7120.900  0.500  1.783315  152.673  25.6612  0.579539
  7121.795  7121.800  0.500  1.809775  152.617  24.982  0.449088
  7122.705  7122.700  0.500  1.831333  152.581  24.4435  0.367899
  7123.600  7123.600  0.500  1.860398  152.532  23.7356  0.311784
  7124.499  7124.500  0.500  1.921228  152.496  22.3295  0.263130
  7125.403  7125.400  0.500  1.988912  152.446  20.8614  0.222835
  7126.301  7126.300  0.500  2.035114  152.375  19.9102  0.194137
  7127.208  7127.200  0.500  2.046285  152.304  19.6798  0.172249
  7128.102  7128.100  0.500  2.011349  152.25  20.3722  0.157055
  7128.996  7129.000  0.500  1.980105  152.173  21.0082  0.139576
  7129.897  7129.900  0.500  1.976375  152.102  21.0769  0.121223
  7130.800  7130.800  0.500  1.973735  152.017  21.1207  0.111459
  7131.708  7131.700  0.500  1.937529  151.928  21.8867  0.117034
  7132.594  7132.600  0.500  1.890533  151.914  22.9376  0.135224
  7133.496  7133.500  0.500  1.855165  151.896  23.7607  0.159110
  7134.400  7134.400  0.500  1.835934  152.39  24.3008  0.182652
  7135.301  7135.300  0.500  1.826015  152.371  24.54  0.199765
  7136.199  7136.200  0.500  1.817438  152.315  24.7422  0.210724
  7136.998  7137.000  0.500  1.809314  152.293  24.9404  0.214601
  7140.021  7140.010  0.500  1.814294  152.305  24.8186  0.191350
  7143.186  7143.200  0.500  1.797171  152.265  25.2406  0.189474
  7146.554  7146.560  0.500  1.784388  152.264  25.5651  0.187505
  7150.076  7150.080  0.500  1.762422  152.224  26.1259  0.160021
  7153.782  7153.780  0.500  1.768216  152.196  25.9703  0.149620
  7157.654  7157.650  0.500  1.790920  152.158  25.3809  0.152570
  7161.703  7161.700  0.500  1.802062  152.068  25.0849  0.152989
  7165.920  7165.910  0.500  1.812505  151.94  24.8034  0.159807
  7170.292  7170.290  0.500  1.821870  151.841  24.5562  0.165199
  7174.851  7174.850  0.500  1.817252  151.739  24.6532  0.187760
  7179.589  7179.580  0.500  1.809010  151.662  24.8446  0.218290
  7184.490  7184.480  0.500  1.797405  151.587  25.1223  0.215997
  7189.552  7189.550  0.500  1.778628  151.484  25.5811  0.190474
  7194.801  7194.790  0.500  1.763568  151.287  25.9355  0.168164
  7200.224  7200.210  0.500  1.757425  151.166  26.0743  0.193671
  7205.799  7205.790  0.500  1.750048  151.042  26.2459  0.244015
  7211.560  7211.550  0.500  1.746235  150.882  26.3183  0.220846
  7217.485  7217.480  0.500  1.748534  150.713  26.2284  0.133655
  7223.588  7223.580  0.500  1.746091  150.539  26.2621  0.126833
  7229.858  7229.850  0.500  1.739751  150.609  26.4416  0.192927
  7236.308  7236.290  0.500  1.732702  150.436  26.598  0.271602
  7242.910  7242.900  0.500  1.729284  150.338  26.6716  0.270628
  7249.703  7249.690  0.500  1.727165  150.072  26.6809  0.240506
  7256.662  7256.650  0.500  1.717374  150.055  26.9405  0.257929
  7263.787  7263.770  0.500  1.707523  138.982  25.1993  0.226111
  7271.079  7271.070  0.500  1.698618  150.183  27.4739  0.223817
  7278.557  7278.550  0.500  1.692029  150.159  27.6511  0.202836
  7286.200  7286.190  0.500  1.683824  149.743  27.8017  0.183892
  7294.012  7294.000  0.500  1.675510  149.755  28.0361  0.205551
  7302.006  7301.990  0.500  1.666539  147.84  27.9269  0.267063
  7310.159  7310.150  0.500  1.658161  149.529  28.4835  0.301751
  7318.481  7318.470  0.500  1.650705  149.314  28.6555  0.304327
  7326.981  7326.970  0.500  1.644960  149.146  28.7881  0.308680
  7335.665  7335.650  0.500  1.638598  149.023  28.9481  0.325273
  7344.497  7344.490  0.500  1.631200  148.739  29.1074  0.316390
  7353.517  7353.500  0.500  1.621239  148.579  29.3671  0.272405
  7362.703  7362.690  0.500  1.611560  148.341  29.6054  0.246572
  7372.069  7372.050  0.500  1.601453  148.121  29.8617  0.259638
  7381.579  7381.570  0.500  1.592101  147.871  30.0914  0.343565
  7391.282  7391.270  0.500  1.582747  147.655  30.3298  0.380927
  7401.164  7401.150  0.500  1.573499  147.767  30.6348  0.372629
  7411.196  7411.190  0.500  1.565109  147.521  30.8415  0.375871
  7421.406  7421.400  0.500  1.556477  147.191  31.0393  0.383408
  7431.800  7431.790  0.500  1.547888  146.912  31.2477  0.400518
  7442.357  7442.350  0.500  1.538474  146.541  31.4637  0.384693
  7453.093  7453.080  0.500  1.529309  145.144  31.4505  0.362263
  7463.992  7463.980  0.500  1.519037  145.994  31.9615  0.377097
  7475.058  7475.050  0.500  1.509040  145.813  32.2425  0.416502
  7486.303  7486.290  0.500  1.498826  145.415  32.4846  0.451091
  7497.731  7497.710  0.500  1.488888  145.093  32.7364  0.479922
  7509.302  7509.290  0.500  1.478835  144.702  32.978  0.477815
  7521.057  7521.050  0.500  1.469258  144.328  33.2094  0.490715
  7532.997  7532.980  0.500  1.459311  143.901  33.4421  0.494275
  7545.102  7545.080  0.500  1.449448  143.471  33.6727  0.507307
  7557.382  7557.350  0.500  1.439249  143.066  33.9217  0.509388
  7569.823  7569.790  0.500  1.428783  142.609  34.1691  0.511952
  7582.415  7582.410  0.500  1.418458  142.142  34.4106  0.549271
  7595.202  7595.190  0.500  1.408330  141.531  34.6116  0.572634
  7608.169  7608.150  0.500  1.397847  140.486  34.7181  0.584830
  7621.299  7621.280  0.500  1.387320  140.324  35.0451  0.604910
  7634.561  7634.580  0.500  1.376721  140.078  35.3564  0.618945
  7648.072  7648.050  0.500  1.366198  139.546  35.5948  0.647151
  7661.686  7661.700  0.500  1.355387  139.032  35.849  0.662390
  7675.511  7675.510  0.500  1.344689  138.475  36.0894  0.666902
  7689.508  7689.500  0.500  1.334033  138.139  36.3876  0.680205
  7703.647  7703.660  0.500  1.323330  137.367  36.5736  0.704765
  7717.982  7717.990  0.500  1.312383  136.737  36.8067  0.732479
  7732.513  7732.490  0.500  1.301736  136.2  37.0545  0.755389
  7747.162  7747.160  0.500  1.290822  135.71  37.3262  0.775780
  7762.011  7762.000  0.500  1.279763  135.06  37.5605  0.797318
  7777.042  7777.020  0.500  1.268808  134.444  37.8013  0.825778
  7792.224  7792.200  0.500  1.257546  133.831  38.055  0.849163
  7807.584  7807.560  0.500  1.246634  133.249  38.3051  0.868232
  7823.071  7823.090  0.500  1.235669  132.592  38.5366  0.888012
  7838.775  7838.790  0.500  1.224296  131.659  38.7031  0.908242
  7854.653  7854.660  0.500  1.213187  130.392  38.7587  0.929956
  7870.683  7870.710  0.500  1.202180  130.591  39.2477  0.966460
  7886.923  7886.920  0.500  1.190908  129.922  39.4891  0.996566
  7903.297  7903.310  0.500  1.179760  129.162  39.6984  1.024817
  7919.849  7919.870  0.500  1.168301  128.445  39.9327  1.054163
  7936.588  7936.600  0.500  1.157003  127.456  40.0755  1.079726
  7953.474  7953.500  0.500  1.145697  126.746  40.3054  1.105070
  7964.837  7964.860  0.500  1.138176  126.159  40.4216  1.123016