File: xdidata/Fe/Fe-Diadochite.xdi
# XDI/1.0 BlueSky/1.10.0 BMM/2023-1.0-py310-tiled
# Beamline.name: BMM (06BM) -- Beamline for Materials Measurement (NIST)
# Beamline.xray_source: NSLS-II three-pole wiggler
# Beamline.collimation: paraboloid mirror, 5 nm Rh on 30 nm Pt
# Beamline.focusing: not in use
# Beamline.harmonic_rejection: flat mirror, Si stripe, pitch = 7.0 mrad relative to beam
# Beamline.software: Bluesky 1.10.0, Ophyd 1.7.0, DataBroker 2.0.0b13, Python 3.10.8, 2023-1.0-py310-tiled
# Detector.I0: 10 cm N2
# Detector.I1: 25 cm N2
# Detector.I2: 25 cm N2
# Element.symbol: Fe
# Element.edge: K
# Element.reference: Fe
# Element.reference_material: Fe foil
# Facility.name: NSLS-II
# Facility.energy: 3.0
# Facility.current: 399.9
# Facility.mode: top-off
# Facility.GUP: 123456
# Facility.SAF: 301027
# Facility.cycle: 2023-2
# Mono.name: Si(111)
# Mono.d_spacing: 3.13519
# Mono.encoder_resolution: 0.0000050 deg/ct
# Mono.angle_offset: 16.0754 deg
# Mono.scan_mode: pseudo channel cut
# Mono.scan_type: step
# Mono.direction: forward in energy
# Sample.name: Fe2(PO4)(SO4)OH.5H2O
# Sample.prep: PEG pellet
# Sample.x: 142.329 mm
# Sample.y: 114.126 mm
# Sample.SDD_position: 205.000 mm
# Scan.experimenters: Bruce Ravel
# Scan.edge_energy: 7112.0
# Scan.start_time: 2023-05-05T20:37:42
# Scan.end_time: 2023-05-05T20:46:51
# Scan.transient_id: 74626
# Scan.uid: ee75aa70-2503-472a-94e1-c324288f7181
# Scan.plot_hint: ln(I0/It)  --  ln($5/$6)
# Column.1: energy eV
# Column.2: requested_energy eV
# Column.3: measurement_time seconds
# Column.4: xmu
# Column.5: I0 nA
# Column.6: It nA
# Column.7: Ir nA
# ///////////
# courtesy Martin Stennett, University of Sheffield
# -----------
# energy  requested_energy  measurement_time  xmu  I0  It  Ir
  6912.007  6912.000  0.500  1.398680  154.67  38.1915  7.167433
  6942.019  6942.000  0.500  1.371694  154.461  39.1832  7.511396
  6972.012  6972.000  0.500  1.345506  154.418  40.2116  7.870317
  7002.013  7002.000  0.500  1.320144  154.316  41.2174  8.232344
  7032.014  7032.000  0.500  1.294914  154.111  42.2142  8.597380
  7062.012  7062.000  0.500  1.270763  153.203  42.9915  8.913316
  7084.000  7084.000  0.500  1.254094  153.422  43.7766  9.155611
  7090.005  7090.000  0.500  1.249908  153.519  43.9881  9.203296
  7096.001  7096.000  0.500  1.246600  153.445  44.1124  9.210282
  7102.003  7102.000  0.500  1.243315  153.329  44.2243  9.152928
  7102.957  7102.900  0.500  1.242903  153.324  44.2411  9.132950
  7103.783  7103.800  0.500  1.242773  153.278  44.2333  9.103517
  7104.690  7104.700  0.500  1.242468  153.263  44.2424  9.067935
  7105.617  7105.600  0.500  1.242321  153.258  44.2476  9.019929
  7106.490  7106.500  0.500  1.242165  153.75  44.3965  8.988917
  7107.387  7107.400  0.500  1.242021  153.666  44.3787  8.899090
  7108.284  7108.300  0.500  1.242251  153.604  44.3505  8.761579
  7109.186  7109.200  0.500  1.242705  153.603  44.3302  8.540634
  7110.097  7110.100  0.500  1.243288  153.55  44.2891  8.067254
  7110.993  7111.000  0.500  1.244477  153.472  44.2141  6.840055
  7111.893  7111.900  0.500  1.247883  153.389  44.0397  4.934970
  7112.790  7112.800  0.500  1.260340  153.307  43.4714  3.805411
  7113.697  7113.700  0.500  1.272374  153.261  42.9384  3.202055
  7114.600  7114.600  0.500  1.279740  153.215  42.6106  2.793235
  7115.498  7115.500  0.500  1.268898  153.208  43.073  2.634796
  7116.395  7116.400  0.500  1.258191  153.177  43.5279  2.580481
  7117.295  7117.300  0.500  1.258724  153.132  43.4919  2.415513
  7118.203  7118.200  0.500  1.262973  153.094  43.2969  2.031451
  7119.104  7119.100  0.500  1.269613  153.044  42.9963  1.601968
  7119.998  7120.000  0.500  1.279138  153.003  42.5772  1.245910
  7120.896  7120.900  0.500  1.299566  152.961  41.7047  0.937824
  7121.797  7121.800  0.500  1.338279  152.916  40.1093  0.718041
  7122.707  7122.700  0.500  1.404010  152.87  37.5464  0.563484
  7123.604  7123.600  0.500  1.503822  152.84  33.9732  0.444827
  7124.495  7124.500  0.500  1.620434  152.769  30.2196  0.354977
  7125.399  7125.400  0.500  1.752806  152.739  26.4677  0.281715
  7126.297  7126.300  0.500  1.898674  152.678  22.8662  0.222099
  7127.203  7127.200  0.500  2.071110  152.594  19.2339  0.168185
  7128.104  7128.100  0.500  2.256947  152.563  15.9687  0.122947
  7128.994  7129.000  0.500  2.435894  152.509  13.3475  0.088906
  7129.901  7129.900  0.500  2.599300  152.442  11.3303  0.065209
  7130.800  7130.800  0.500  2.699256  152.357  10.2468  0.053952
  7131.704  7131.700  0.500  2.718484  152.297  10.0477  0.053596
  7132.599  7132.600  0.500  2.688802  152.264  10.3482  0.060979
  7133.496  7133.500  0.500  2.652418  152.26  10.7313  0.071687
  7134.400  7134.400  0.500  2.629247  152.241  10.9816  0.082314
  7135.298  7135.300  0.500  2.617650  152.227  11.1087  0.090022
  7136.201  7136.200  0.500  2.609138  152.242  11.2047  0.095090
  7136.996  7137.000  0.500  2.601674  152.238  11.2883  0.096776
  7140.026  7140.010  0.500  2.514884  152.226  12.3108  0.094501
  7143.186  7143.200  0.500  2.371291  152.736  14.2595  0.106910
  7146.554  7146.560  0.500  2.262614  152.721  15.8949  0.116180
  7150.085  7150.080  0.500  2.190916  152.717  17.0759  0.104093
  7153.790  7153.780  0.500  2.113961  152.691  18.4388  0.105741
  7157.650  7157.650  0.500  2.022415  152.642  20.1999  0.120847
  7161.707  7161.700  0.500  1.980072  152.569  21.0636  0.127970
  7165.915  7165.910  0.500  2.015868  152.438  20.3054  0.130201
  7170.294  7170.290  0.500  2.096720  152.36  18.7187  0.125301
  7174.851  7174.850  0.500  2.178192  152.247  17.2414  0.130683
  7179.587  7179.580  0.500  2.220050  152.153  16.5244  0.144621
  7184.496  7184.480  0.500  2.225570  152.058  16.4231  0.140464
  7189.559  7189.550  0.500  2.217630  151.956  16.543  0.122446
  7194.805  7194.790  0.500  2.199698  151.766  16.8213  0.108661
  7200.219  7200.210  0.500  2.179675  151.656  17.149  0.126812
  7205.797  7205.790  0.500  2.156058  151.498  17.5405  0.162595
  7211.562  7211.550  0.500  2.132053  151.311  17.9445  0.150365
  7217.487  7217.480  0.500  2.110335  151.157  18.3199  0.092977
  7223.599  7223.580  0.500  2.091587  150.981  18.6448  0.089751
  7229.856  7229.850  0.500  2.078621  151.026  18.8938  0.137260
  7236.308  7236.290  0.500  2.072182  150.843  18.9927  0.193277
  7242.910  7242.900  0.500  2.072879  150.716  18.9636  0.191542
  7249.701  7249.690  0.500  2.076580  150.448  18.8598  0.169298
  7256.662  7256.650  0.500  2.080892  150.422  18.7755  0.179072
  7263.782  7263.770  0.500  2.084791  139.329  17.3232  0.154844
  7271.081  7271.070  0.500  2.085690  150.569  18.7039  0.151615
  7278.559  7278.550  0.500  2.075061  150.515  18.897  0.138085
  7286.202  7286.190  0.500  2.056892  150.095  19.1897  0.126501
  7294.018  7294.000  0.500  2.039767  150.12  19.5245  0.142707
  7302.006  7301.990  0.500  2.026113  148.195  19.5391  0.186224
  7310.168  7310.150  0.500  2.014848  149.895  19.987  0.210771
  7318.481  7318.470  0.500  2.004042  149.694  20.1771  0.213354
  7326.987  7326.970  0.500  1.992255  149.526  20.3935  0.217915
  7335.663  7335.650  0.500  1.980747  149.314  20.6003  0.230672
  7344.500  7344.490  0.500  1.970999  149.095  20.7716  0.224740
  7353.517  7353.500  0.500  1.963010  148.944  20.9169  0.193249
  7362.700  7362.690  0.500  1.954802  148.707  21.0558  0.174605
  7372.063  7372.050  0.500  1.947650  148.48  21.1746  0.183414
  7381.586  7381.570  0.500  1.939758  148.255  21.3099  0.242350
  7391.279  7391.270  0.500  1.929137  147.997  21.5001  0.268956
  7401.160  7401.150  0.500  1.915782  147.754  21.7534  0.263493
  7411.205  7411.190  0.500  1.902399  147.512  22.0102  0.266877
  7421.404  7421.400  0.500  1.890318  147.218  22.2334  0.273427
  7431.802  7431.790  0.500  1.878289  146.93  22.4584  0.287053
  7442.357  7442.350  0.500  1.866635  146.579  22.6675  0.276117
  7453.086  7453.080  0.500  1.855014  145.308  22.7335  0.260867
  7463.990  7463.980  0.500  1.843915  146.441  23.1665  0.272197
  7475.060  7475.050  0.500  1.832665  146.224  23.394  0.301114
  7486.298  7486.290  0.500  1.821690  145.886  23.5974  0.326564
  7497.724  7497.710  0.500  1.811621  145.569  23.7844  0.347417
  7509.307  7509.290  0.500  1.800445  145.192  23.9893  0.346441
  7521.069  7521.050  0.500  1.788712  144.806  24.208  0.356272
  7532.994  7532.980  0.500  1.776672  144.396  24.4319  0.359917
  7545.095  7545.080  0.500  1.765091  143.999  24.6484  0.369759
  7557.385  7557.350  0.500  1.753134  143.553  24.8676  0.371962
  7569.826  7569.790  0.500  1.741849  143.098  25.0702  0.374368
  7582.427  7582.410  0.500  1.729612  142.626  25.2952  0.402359
  7595.212  7595.190  0.500  1.716951  142.032  25.5108  0.420577
  7608.145  7608.150  0.500  1.704338  141.019  25.6504  0.430425
  7621.292  7621.280  0.500  1.692533  140.816  25.9176  0.445864
  7634.603  7634.580  0.500  1.681147  140.603  26.1747  0.456571
  7648.030  7648.050  0.500  1.669609  140.073  26.3787  0.477798
  7661.703  7661.700  0.500  1.657618  139.517  26.5908  0.489778
  7675.496  7675.510  0.500  1.645508  138.961  26.8075  0.493816
  7689.485  7689.500  0.500  1.633124  138.528  27.057  0.504246
  7703.655  7703.660  0.500  1.621131  137.847  27.2489  0.523425
  7717.985  7717.990  0.500  1.608979  137.29  27.4705  0.545230
  7732.467  7732.490  0.500  1.596422  136.731  27.7045  0.562791
  7747.183  7747.160  0.500  1.584491  136.166  27.9212  0.578560
  7762.021  7762.000  0.500  1.572013  135.57  28.148  0.595716
  7777.047  7777.020  0.500  1.559117  134.939  28.3806  0.618024
  7792.224  7792.200  0.500  1.546561  134.272  28.5972  0.636111
  7807.540  7807.560  0.500  1.534270  133.691  28.8255  0.650962
  7823.094  7823.090  0.500  1.521830  133.023  29.0404  0.667422
  7838.773  7838.790  0.500  1.509546  132.081  29.1913  0.683264
  7854.651  7854.660  0.500  1.497179  130.817  29.2716  0.700409
  7870.722  7870.710  0.500  1.485070  131.036  29.6779  0.728379
  7886.891  7886.920  0.500  1.472145  130.344  29.9053  0.752354
  7903.284  7903.310  0.500  1.459650  129.607  30.1099  0.775278
  7919.844  7919.870  0.500  1.447258  128.881  30.3146  0.797895
  7936.586  7936.600  0.500  1.435268  127.884  30.4429  0.818021
  7953.477  7953.500  0.500  1.422593  127.231  30.6738  0.838934
  7964.835  7964.860  0.500  1.414532  126.613  30.772  0.852528