File: xdidata/Fe/Fe-Epidote.xdi
# XDI/1.0 BlueSky/1.10.0 BMM/2023-1.0-py310-tiled
# Beamline.name: BMM (06BM) -- Beamline for Materials Measurement (NIST)
# Beamline.xray_source: NSLS-II three-pole wiggler
# Beamline.collimation: paraboloid mirror, 5 nm Rh on 30 nm Pt
# Beamline.focusing: not in use
# Beamline.harmonic_rejection: flat mirror, Si stripe, pitch = 7.0 mrad relative to beam
# Beamline.software: Bluesky 1.10.0, Ophyd 1.7.0, DataBroker 2.0.0b13, Python 3.10.8, 2023-1.0-py310-tiled
# Detector.I0: 10 cm N2
# Detector.I1: 25 cm N2
# Detector.I2: 25 cm N2
# Element.symbol: Fe
# Element.edge: K
# Element.reference: Fe
# Element.reference_material: Fe foil
# Facility.name: NSLS-II
# Facility.energy: 3.0
# Facility.current: 400.0
# Facility.mode: top-off
# Facility.GUP: 123456
# Facility.SAF: 301027
# Facility.cycle: 2023-2
# Mono.name: Si(111)
# Mono.d_spacing: 3.13519
# Mono.encoder_resolution: 0.0000050 deg/ct
# Mono.angle_offset: 16.0754 deg
# Mono.scan_mode: pseudo channel cut
# Mono.scan_type: step
# Mono.direction: forward in energy
# Sample.name: Ca2Al2Fe(SiO4)(Si2O7)OOH
# Sample.prep: PEG pellet
# Sample.x: 142.329 mm
# Sample.y: 114.126 mm
# Sample.SDD_position: 205.000 mm
# Scan.experimenters: Bruce Ravel
# Scan.edge_energy: 7112.0
# Scan.start_time: 2023-05-05T19:35:02
# Scan.end_time: 2023-05-05T19:43:18
# Scan.transient_id: 74591
# Scan.uid: 3e991538-8f09-40fc-ab4e-0427df98460a
# Scan.plot_hint: ln(I0/It)  --  ln($5/$6)
# Column.1: energy eV
# Column.2: requested_energy eV
# Column.3: measurement_time seconds
# Column.4: xmu
# Column.5: I0 nA
# Column.6: It nA
# Column.7: Ir nA
# ///////////
# courtesy Martin Stennett, University of Sheffield
# -----------
# energy  requested_energy  measurement_time  xmu  I0  It  Ir
  6912.005  6912.000  0.500  1.319997  154.337  41.2291  7.743522
  6942.017  6942.000  0.500  1.295456  154.133  42.1973  8.093904
  6972.018  6972.000  0.500  1.271142  154.057  43.2148  8.462398
  7002.011  7002.000  0.500  1.247303  153.923  44.2189  8.835434
  7032.008  7032.000  0.500  1.223807  153.712  45.208  9.210226
  7062.008  7062.000  0.500  1.201503  152.781  45.9476  9.529232
  7083.987  7084.000  0.500  1.184571  153.008  46.8015  9.792834
  7089.990  7090.000  0.500  1.180290  153.096  47.0295  9.845229
  7096.187  7096.000  0.500  1.175803  152.987  47.2075  9.859956
  7101.988  7102.000  0.500  1.171668  152.942  47.389  9.812478
  7102.884  7102.900  0.500  1.170993  152.888  47.4043  9.791062
  7103.781  7103.800  0.500  1.170903  152.821  47.3877  9.757614
  7104.688  7104.700  0.500  1.170017  152.802  47.4239  9.725412
  7105.584  7105.600  0.500  1.169436  152.731  47.4294  9.674566
  7106.486  7106.500  0.500  1.168982  152.73  47.4505  9.611518
  7107.389  7107.400  0.500  1.168251  152.713  47.4799  9.524945
  7108.289  7108.300  0.500  1.167891  152.674  47.4851  9.383010
  7109.191  7109.200  0.500  1.167448  152.611  47.4864  9.153312
  7110.093  7110.100  0.500  1.166978  152.593  47.5031  8.661689
  7110.993  7111.000  0.500  1.166618  152.527  47.4996  7.356838
  7111.891  7111.900  0.500  1.166798  152.989  47.6351  5.349354
  7112.792  7112.800  0.500  1.168656  152.868  47.5091  4.158076
  7113.699  7113.700  0.500  1.171012  152.82  47.3824  3.534867
  7114.598  7114.600  0.500  1.170040  152.778  47.4153  3.111032
  7115.500  7115.500  0.500  1.168209  152.76  47.4966  2.907312
  7116.393  7116.400  0.500  1.165836  152.704  47.592  2.823482
  7117.295  7117.300  0.500  1.165689  152.677  47.5908  2.642974
  7118.199  7118.200  0.500  1.166136  152.581  47.5396  2.234963
  7119.099  7119.100  0.500  1.167678  152.559  47.4593  1.771236
  7119.998  7120.000  0.500  1.171541  152.469  47.2484  1.382882
  7120.894  7120.900  0.500  1.179084  152.442  46.8852  1.055502
  7121.799  7121.800  0.500  1.192436  152.384  46.2457  0.828551
  7122.702  7122.700  0.500  1.214388  152.356  45.2333  0.679270
  7123.602  7123.600  0.500  1.234902  152.31  44.3014  0.579835
  7124.497  7124.500  0.500  1.251353  152.26  43.5641  0.511357
  7125.397  7125.400  0.500  1.275586  152.173  42.497  0.452339
  7126.301  7126.300  0.500  1.305410  152.114  41.2321  0.400091
  7127.210  7127.200  0.500  1.335981  152.03  39.9687  0.348634
  7128.095  7128.100  0.500  1.357005  151.982  39.1248  0.300958
  7128.996  7129.000  0.500  1.365468  151.886  38.7706  0.256874
  7129.899  7129.900  0.500  1.363845  151.791  38.8094  0.222482
  7130.798  7130.800  0.500  1.364046  151.739  38.7882  0.203554
  7131.704  7131.700  0.500  1.376414  151.658  38.2911  0.203169
  7132.597  7132.600  0.500  1.396138  151.608  37.5307  0.219551
  7133.498  7133.500  0.500  1.411094  151.581  36.967  0.246181
  7134.398  7134.400  0.500  1.414733  151.604  36.8384  0.275577
  7135.298  7135.300  0.500  1.408899  151.616  37.0567  0.300322
  7136.201  7136.200  0.500  1.393544  151.529  37.6085  0.318782
  7136.992  7137.000  0.500  1.380887  151.5  38.0803  0.326393
  7140.028  7140.010  0.500  1.358013  151.51  38.9642  0.298997
  7143.190  7143.200  0.500  1.332414  151.451  39.9587  0.298850
  7146.557  7146.560  0.500  1.319615  151.416  40.4641  0.295511
  7150.083  7150.080  0.500  1.312512  151.395  40.747  0.248275
  7153.786  7153.780  0.500  1.294383  151.391  41.4913  0.237612
  7157.656  7157.650  0.500  1.285065  151.292  41.8523  0.250132
  7161.705  7161.700  0.500  1.282156  151.21  41.9516  0.254815
  7165.913  7165.910  0.500  1.282501  151.065  41.8968  0.268729
  7170.294  7170.290  0.500  1.287172  150.99  41.6808  0.278787
  7174.856  7174.850  0.500  1.295677  150.885  41.2992  0.312909
  7179.587  7179.580  0.500  1.295627  150.763  41.2677  0.360913
  7184.490  7184.480  0.500  1.292413  150.687  41.3797  0.354745
  7189.555  7189.550  0.500  1.288083  150.6  41.5353  0.307482
  7194.796  7194.790  0.500  1.283401  150.394  41.673  0.269031
  7200.217  7200.210  0.500  1.278274  150.265  41.8515  0.309413
  7205.803  7205.790  0.500  1.273793  150.14  42.0046  0.389177
  7211.557  7211.550  0.500  1.270222  150.467  42.2466  0.353362
  7217.489  7217.480  0.500  1.262157  150.296  42.5403  0.215725
  7223.597  7223.580  0.500  1.254554  150.079  42.803  0.205815
  7229.864  7229.850  0.500  1.248776  150.145  43.0698  0.312733
  7236.308  7236.290  0.500  1.242671  149.959  43.2799  0.440619
  7242.912  7242.900  0.500  1.238311  149.874  43.4445  0.438811
  7249.703  7249.690  0.500  1.235565  149.605  43.4856  0.390167
  7256.666  7256.650  0.500  1.234122  149.552  43.5331  0.415157
  7263.789  7263.770  0.500  1.229700  138.325  40.4435  0.361572
  7271.079  7271.070  0.500  1.224234  149.74  44.0211  0.357179
  7278.562  7278.550  0.500  1.216136  149.677  44.3602  0.324030
  7286.198  7286.190  0.500  1.210783  149.248  44.4706  0.293011
  7294.012  7294.000  0.500  1.206077  149.267  44.686  0.326630
  7302.008  7301.990  0.500  1.200468  147.36  44.3631  0.422955
  7310.161  7310.150  0.500  1.194072  148.946  45.1283  0.476484
  7318.483  7318.470  0.500  1.187860  148.875  45.3881  0.480635
  7326.981  7326.970  0.500  1.180738  148.705  45.6603  0.487926
  7335.665  7335.650  0.500  1.173086  148.462  45.9358  0.514277
  7344.504  7344.490  0.500  1.166104  148.259  46.1944  0.500363
  7353.517  7353.500  0.500  1.160131  148.1  46.4211  0.429179
  7362.698  7362.690  0.500  1.154621  147.845  46.5974  0.386512
  7372.067  7372.050  0.500  1.148026  147.616  46.8331  0.405625
  7381.584  7381.570  0.500  1.142307  147.415  47.0377  0.535469
  7391.282  7391.270  0.500  1.136025  147.201  47.2653  0.591333
  7401.157  7401.150  0.500  1.128631  146.953  47.5358  0.576160
  7411.205  7411.190  0.500  1.121082  146.695  47.812  0.580107
  7421.404  7421.400  0.500  1.113921  146.452  48.0757  0.591790
  7431.800  7431.790  0.500  1.106606  146.134  48.3234  0.618053
  7442.364  7442.350  0.500  1.099278  145.747  48.5501  0.591257
  7453.095  7453.080  0.500  1.091933  144.499  48.489  0.556604
  7463.997  7463.980  0.500  1.085153  145.29  49.0862  0.576940
  7475.063  7475.050  0.500  1.077422  145.092  49.3999  0.636518
  7486.303  7486.290  0.500  1.070214  144.638  49.6014  0.686587
  7497.724  7497.710  0.500  1.062600  144.399  49.8981  0.729005
  7509.309  7509.290  0.500  1.055088  144.038  50.1484  0.724501
  7521.045  7521.050  0.500  1.047622  143.621  50.3779  0.741629
  7533.002  7532.980  0.500  1.040018  143.222  50.6216  0.746332
  7545.110  7545.080  0.500  1.032492  142.847  50.8706  0.763799
  7557.387  7557.350  0.500  1.024758  142.405  51.1068  0.765285
  7569.821  7569.790  0.500  1.016569  141.94  51.3589  0.767139
  7582.400  7582.410  0.500  1.009024  141.487  51.5824  0.820734
  7595.207  7595.190  0.500  1.000764  140.905  51.7965  0.854228
  7608.132  7608.150  0.500  0.992402  139.866  51.8461  0.870821
  7621.297  7621.280  0.500  0.984809  139.668  52.1676  0.898163
  7634.576  7634.580  0.500  0.976787  139.357  52.4704  0.915795
  7648.035  7648.050  0.500  0.968738  138.874  52.7114  0.955458
  7661.691  7661.700  0.500  0.960361  138.349  52.9537  0.975452
  7675.503  7675.510  0.500  0.952706  138.47  53.4072  0.984016
  7689.483  7689.500  0.500  0.944370  138.085  53.7045  1.001320
  7703.647  7703.660  0.500  0.935631  137.242  53.8452  1.034916
  7717.977  7717.990  0.500  0.927328  136.672  54.0686  1.073180
  7732.467  7732.490  0.500  0.918929  136.17  54.3243  1.103597
  7747.165  7747.160  0.500  0.910738  135.616  54.5486  1.130894
  7761.990  7762.000  0.500  0.902097  134.893  54.7286  1.158527
  7777.024  7777.020  0.500  0.893624  134.342  54.9687  1.196939
  7792.219  7792.200  0.500  0.884929  133.695  55.1816  1.228233
  7807.540  7807.560  0.500  0.876466  133.092  55.3997  1.252095
  7823.078  7823.090  0.500  0.868003  132.453  55.6025  1.278329
  7838.770  7838.790  0.500  0.859385  131.464  55.665  1.303438
  7854.640  7854.660  0.500  0.850671  130.173  55.6004  1.330501
  7870.691  7870.710  0.500  0.841874  130.343  56.1652  1.378555
  7886.894  7886.920  0.500  0.833479  129.685  56.3527  1.418781
  7903.287  7903.310  0.500  0.824447  128.926  56.5309  1.456424
  7919.863  7919.870  0.500  0.815726  128.154  56.6847  1.492371
  7936.578  7936.600  0.500  0.807208  127.144  56.7191  1.524209
  7953.485  7953.500  0.500  0.798338  126.476  56.9239  1.556517
  7964.835  7964.860  0.500  0.792763  125.884  56.9743  1.579119