File: xdidata/Fe/Fe-Fayalite.xdi
# XDI/1.0 BlueSky/1.10.0 BMM/2023-1.0-py310-tiled
# Beamline.name: BMM (06BM) -- Beamline for Materials Measurement (NIST)
# Beamline.xray_source: NSLS-II three-pole wiggler
# Beamline.collimation: paraboloid mirror, 5 nm Rh on 30 nm Pt
# Beamline.focusing: not in use
# Beamline.harmonic_rejection: flat mirror, Si stripe, pitch = 7.0 mrad relative to beam
# Beamline.software: Bluesky 1.10.0, Ophyd 1.7.0, DataBroker 2.0.0b13, Python 3.10.8, 2023-1.0-py310-tiled
# Detector.I0: 10 cm N2
# Detector.I1: 25 cm N2
# Detector.I2: 25 cm N2
# Element.symbol: Fe
# Element.edge: K
# Element.reference: Fe
# Element.reference_material: Fe foil
# Facility.name: NSLS-II
# Facility.energy: 3.0
# Facility.current: 399.8
# Facility.mode: top-off
# Facility.GUP: 123456
# Facility.SAF: 301027
# Facility.cycle: 2023-2
# Mono.name: Si(111)
# Mono.d_spacing: 3.13519
# Mono.encoder_resolution: 0.0000050 deg/ct
# Mono.angle_offset: 16.0754 deg
# Mono.scan_mode: pseudo channel cut
# Mono.scan_type: step
# Mono.direction: forward in energy
# Sample.name: Fe2SiO4
# Sample.prep: PEG pellet
# Sample.x: 116.329 mm
# Sample.y: 114.126 mm
# Sample.SDD_position: 205.000 mm
# Scan.experimenters: Bruce Ravel
# Scan.edge_energy: 7112.0
# Scan.start_time: 2023-05-05T18:05:59
# Scan.end_time: 2023-05-05T18:14:10
# Scan.transient_id: 74541
# Scan.uid: 8827c70c-3070-4774-8ee3-07582819dfd9
# Scan.plot_hint: ln(I0/It)  --  ln($5/$6)
# Column.1: energy eV
# Column.2: requested_energy eV
# Column.3: measurement_time seconds
# Column.4: xmu
# Column.5: I0 nA
# Column.6: It nA
# Column.7: Ir nA
# ///////////
# courtesy Martin Stennett, University of Sheffield
# -----------
# energy  requested_energy  measurement_time  xmu  I0  It  Ir
  6912.003  6912.000  0.500  2.138412  153.825  18.127  3.402569
  6942.007  6942.000  0.500  2.103341  153.652  18.753  3.595425
  6972.020  6972.000  0.500  2.068652  153.631  19.4122  3.799667
  7002.013  7002.000  0.500  2.034666  153.525  20.0694  4.008953
  7032.014  7032.000  0.500  2.001685  153.327  20.7156  4.219274
  7062.008  7062.000  0.500  1.970489  152.437  21.248  4.404911
  7083.985  7084.000  0.500  1.950662  152.683  21.7084  4.541124
  7089.988  7090.000  0.500  1.946480  152.824  21.8195  4.566116
  7096.105  7096.000  0.500  1.943998  152.731  21.8605  4.563931
  7101.995  7102.000  0.500  1.944650  152.64  21.8332  4.519087
  7102.887  7102.900  0.500  1.945198  152.574  21.8118  4.503293
  7103.787  7103.800  0.500  1.945963  152.547  21.7912  4.484496
  7104.688  7104.700  0.500  1.947033  153.2  21.8612  4.481008
  7105.589  7105.600  0.500  1.948767  153.175  21.8197  4.448702
  7106.490  7106.500  0.500  1.950670  153.153  21.7751  4.408233
  7107.385  7107.400  0.500  1.952947  153.117  21.7204  4.355732
  7108.287  7108.300  0.500  1.956178  153.095  21.6473  4.275284
  7109.191  7109.200  0.500  1.961289  153.059  21.5319  4.146149
  7110.091  7110.100  0.500  1.969697  153.001  21.3434  3.884989
  7110.997  7111.000  0.500  1.992969  152.933  20.8432  3.213885
  7111.889  7111.900  0.500  2.026770  152.851  20.1396  2.251925
  7112.792  7112.800  0.500  2.025471  152.772  20.1554  1.757137
  7113.701  7113.700  0.500  2.025956  152.707  20.1371  1.497660
  7114.598  7114.600  0.500  2.027193  152.674  20.1079  1.316232
  7115.498  7115.500  0.500  2.045537  152.634  19.7373  1.207133
  7116.395  7116.400  0.500  2.095628  152.591  18.7677  1.112722
  7117.295  7117.300  0.500  2.206427  152.553  16.7951  0.933313
  7118.201  7118.200  0.500  2.397164  152.534  13.8769  0.654476
  7119.101  7119.100  0.500  2.672101  152.515  10.5399  0.395510
  7119.998  7120.000  0.500  2.974882  152.447  7.782939  0.228998
  7120.894  7120.900  0.500  3.235372  152.399  5.996238  0.135539
  7121.799  7121.800  0.500  3.453054  152.343  4.821469  0.086657
  7122.702  7122.700  0.500  3.682881  152.319  3.830880  0.057739
  7123.597  7123.600  0.500  4.001936  152.252  2.783199  0.036664
  7124.499  7124.500  0.500  4.295250  152.189  2.074821  0.024547
  7125.397  7125.400  0.500  4.447102  152.143  1.781970  0.019112
  7126.299  7126.300  0.500  4.520428  152.062  1.655098  0.016166
  7127.205  7127.200  0.500  4.527742  151.986  1.642213  0.014410
  7128.102  7128.100  0.500  4.433914  151.926  1.803050  0.013982
  7128.996  7129.000  0.500  4.300785  151.859  2.058895  0.013905
  7129.901  7129.900  0.500  4.157884  151.768  2.373739  0.013876
  7130.800  7130.800  0.500  4.037029  151.677  2.677070  0.014376
  7131.704  7131.700  0.500  3.928335  151.615  2.983241  0.016151
  7132.605  7132.600  0.500  3.842492  151.586  3.250011  0.019377
  7133.494  7133.500  0.500  3.773140  151.577  3.483207  0.023504
  7134.398  7134.400  0.500  3.719724  151.581  3.674424  0.027715
  7135.305  7135.300  0.500  3.696582  151.56  3.759940  0.030747
  7136.199  7136.200  0.500  3.684820  151.545  3.804026  0.032415
  7136.996  7137.000  0.500  3.671642  151.517  3.853795  0.033124
  7140.023  7140.010  0.500  3.651111  151.51  3.933539  0.030379
  7143.190  7143.200  0.500  3.602253  151.5  4.130228  0.030951
  7146.557  7146.560  0.500  3.518619  151.502  4.490584  0.032790
  7150.085  7150.080  0.500  3.463216  151.475  4.745538  0.029028
  7153.784  7153.780  0.500  3.484884  151.451  4.643069  0.026780
  7157.656  7157.650  0.500  3.545936  151.387  4.366250  0.026492
  7161.698  7161.700  0.500  3.627316  151.283  4.022238  0.024642
  7165.909  7165.910  0.500  3.737188  151.628  3.611928  0.023281
  7170.294  7170.290  0.500  3.784215  151.499  3.443062  0.023240
  7174.860  7174.850  0.500  3.785823  151.368  3.434558  0.026110
  7179.578  7179.580  0.500  3.735259  151.238  3.609596  0.031711
  7184.485  7184.480  0.500  3.674495  151.109  3.832452  0.033027
  7189.557  7189.550  0.500  3.614636  150.956  4.064742  0.030254
  7194.798  7194.790  0.500  3.572517  150.723  4.233076  0.027560
  7200.222  7200.210  0.500  3.568439  150.584  4.246446  0.031522
  7205.799  7205.790  0.500  3.577448  150.425  4.203928  0.039303
  7211.560  7211.550  0.500  3.584469  150.224  4.168922  0.034878
  7217.491  7217.480  0.500  3.606383  150.03  4.073301  0.020861
  7223.595  7223.580  0.500  3.601857  149.838  4.086549  0.019846
  7229.862  7229.850  0.500  3.563614  149.893  4.247403  0.031075
  7236.301  7236.290  0.500  3.527740  149.689  4.396537  0.044948
  7242.910  7242.900  0.500  3.556503  149.563  4.268286  0.043186
  7249.696  7249.690  0.500  3.593586  149.281  4.105146  0.036899
  7256.671  7256.650  0.500  3.577560  149.286  4.171604  0.039841
  7263.782  7263.770  0.500  3.542997  137.249  3.970133  0.035479
  7271.085  7271.070  0.500  3.524279  149.393  4.403066  0.035741
  7278.564  7278.550  0.500  3.509252  149.349  4.468426  0.032824
  7286.198  7286.190  0.500  3.489709  148.923  4.543602  0.030040
  7294.012  7294.000  0.500  3.461476  148.963  4.674950  0.034296
  7302.001  7301.990  0.500  3.453884  147.153  4.653354  0.044508
  7310.163  7310.150  0.500  3.456255  148.74  4.692402  0.049569
  7318.486  7318.470  0.500  3.445128  148.523  4.737985  0.050231
  7326.985  7326.970  0.500  3.433609  148.324  4.786445  0.051213
  7335.665  7335.650  0.500  3.424828  148.146  4.822882  0.054171
  7344.506  7344.490  0.500  3.417222  147.903  4.851723  0.052555
  7353.517  7353.500  0.500  3.398605  147.715  4.936598  0.045522
  7362.700  7362.690  0.500  3.376655  147.499  5.038799  0.041818
  7372.063  7372.050  0.500  3.362092  147.298  5.105754  0.044162
  7381.579  7381.570  0.500  3.347000  147.021  5.173632  0.058987
  7391.282  7391.270  0.500  3.329611  146.845  5.258077  0.065820
  7401.160  7401.150  0.500  3.315079  146.603  5.326254  0.064540
  7411.201  7411.190  0.500  3.305998  146.347  5.365460  0.065151
  7421.406  7421.400  0.500  3.293846  146.047  5.419921  0.066629
  7431.805  7431.790  0.500  3.276148  145.756  5.505730  0.070307
  7442.354  7442.350  0.500  3.258998  145.385  5.586678  0.067998
  7453.095  7453.080  0.500  3.244712  144.037  5.614539  0.064274
  7463.990  7463.980  0.500  3.232018  144.831  5.717588  0.067150
  7475.058  7475.050  0.500  3.215238  144.624  5.806028  0.074776
  7486.300  7486.290  0.500  3.201870  144.242  5.868652  0.081249
  7497.720  7497.710  0.500  3.187449  143.872  5.938628  0.086534
  7509.297  7509.290  0.500  3.170716  143.47  6.021959  0.086857
  7521.066  7521.050  0.500  3.151594  143.09  6.121937  0.089983
  7532.982  7532.980  0.500  3.135334  142.686  6.204713  0.091175
  7545.112  7545.080  0.500  3.121144  142.245  6.273947  0.094021
  7557.346  7557.350  0.500  3.106561  141.994  6.354861  0.094929
  7569.794  7569.790  0.500  3.091281  141.544  6.432300  0.095773
  7582.393  7582.410  0.500  3.075286  141.055  6.513434  0.103514
  7595.175  7595.190  0.500  3.059004  140.462  6.592491  0.108536
  7608.145  7608.150  0.500  3.043471  139.411  6.645583  0.111528
  7621.275  7621.280  0.500  3.027758  139.195  6.740408  0.115841
  7634.603  7634.580  0.500  3.011237  138.923  6.839277  0.119052
  7648.042  7648.050  0.500  2.994823  138.434  6.927985  0.125327
  7661.688  7661.700  0.500  2.978576  137.93  7.015849  0.129020
  7675.493  7675.510  0.500  2.961573  137.352  7.106254  0.130722
  7689.495  7689.500  0.500  2.944885  136.962  7.205337  0.133769
  7703.683  7703.660  0.500  2.928866  136.194  7.280614  0.139557
  7717.977  7717.990  0.500  2.912526  135.609  7.368778  0.145924
  7732.475  7732.490  0.500  2.896054  135.046  7.460058  0.151201
  7747.139  7747.160  0.500  2.879476  134.556  7.557205  0.156289
  7761.982  7762.000  0.500  2.863069  133.932  7.646624  0.161494
  7777.042  7777.020  0.500  2.846478  133.311  7.738518  0.168430
  7792.216  7792.200  0.500  2.829065  132.687  7.837558  0.174045
  7807.590  7807.560  0.500  2.812219  132.081  7.934307  0.178930
  7823.078  7823.090  0.500  2.795440  131.436  8.029190  0.183990
  7838.783  7838.790  0.500  2.778073  130.486  8.110796  0.189478
  7854.682  7854.660  0.500  2.761133  129.176  8.166510  0.194802
  7870.696  7870.710  0.500  2.744407  129.414  8.319563  0.203913
  7886.902  7886.920  0.500  2.727687  128.692  8.412667  0.211251
  7903.289  7903.310  0.500  2.710320  127.953  8.510889  0.218737
  7919.860  7919.870  0.500  2.693331  127.245  8.608785  0.226063
  7936.572  7936.600  0.500  2.676234  126.244  8.688330  0.232965
  7953.477  7953.500  0.500  2.659186  125.572  8.790697  0.239755
  7964.827  7964.860  0.500  2.647954  125.006  8.849920  0.244629