File: xdidata/Fe/Fe-Fe2Oxalate.xdi
# XDI/1.0 BlueSky/1.10.0 BMM/2023-1.0-py310-tiled
# Beamline.name: BMM (06BM) -- Beamline for Materials Measurement (NIST)
# Beamline.xray_source: NSLS-II three-pole wiggler
# Beamline.collimation: paraboloid mirror, 5 nm Rh on 30 nm Pt
# Beamline.focusing: not in use
# Beamline.harmonic_rejection: flat mirror, Si stripe, pitch = 7.0 mrad relative to beam
# Beamline.software: Bluesky 1.10.0, Ophyd 1.7.0, DataBroker 2.0.0b13, Python 3.10.8, 2023-1.0-py310-tiled
# Detector.I0: 10 cm N2
# Detector.I1: 25 cm N2
# Detector.I2: 25 cm N2
# Element.symbol: Fe
# Element.edge: K
# Element.reference: Fe
# Element.reference_material: Fe foil
# Facility.name: NSLS-II
# Facility.energy: 3.0
# Facility.current: 399.3
# Facility.mode: top-off
# Facility.GUP: 123456
# Facility.SAF: 301027
# Facility.cycle: 2023-2
# Mono.name: Si(111)
# Mono.d_spacing: 3.13519
# Mono.encoder_resolution: 0.0000050 deg/ct
# Mono.angle_offset: 16.0754 deg
# Mono.scan_mode: pseudo channel cut
# Mono.scan_type: step
# Mono.direction: forward in energy
# Sample.name: FeC2O4(H2O)2
# Sample.prep: PEG pellet
# Sample.x: 116.329 mm
# Sample.y: 114.126 mm
# Sample.SDD_position: 205.000 mm
# Scan.experimenters: Bruce Ravel
# Scan.edge_energy: 7112.0
# Scan.start_time: 2023-05-05T18:50:13
# Scan.end_time: 2023-05-05T18:58:23
# Scan.transient_id: 74566
# Scan.uid: 8826fc18-d0a2-4e26-83ae-67cfdac7097e
# Scan.plot_hint: ln(I0/It)  --  ln($5/$6)
# Column.1: energy eV
# Column.2: requested_energy eV
# Column.3: measurement_time seconds
# Column.4: xmu
# Column.5: I0 nA
# Column.6: It nA
# Column.7: Ir nA
# ///////////
# courtesy Martin Stennett, University of Sheffield
# -----------
# energy  requested_energy  measurement_time  xmu  I0  It  Ir
  6912.001  6912.000  0.500  1.768845  154.084  26.2759  4.932860
  6942.011  6942.000  0.500  1.736819  153.888  27.0965  5.195417
  6972.016  6972.000  0.500  1.706163  154.343  28.0227  5.486091
  7002.013  7002.000  0.500  1.676452  154.247  28.8498  5.763539
  7032.012  7032.000  0.500  1.647177  154.034  29.6658  6.043003
  7062.012  7062.000  0.500  1.618514  153.098  30.3429  6.290899
  7083.981  7084.000  0.500  1.599683  153.369  30.9745  6.479805
  7089.988  7090.000  0.500  1.594904  153.446  31.1384  6.516411
  7095.984  7096.000  0.500  1.591602  153.415  31.2352  6.522203
  7101.997  7102.000  0.500  1.588896  153.3  31.2964  6.478677
  7102.887  7102.900  0.500  1.588612  153.273  31.2997  6.462344
  7103.787  7103.800  0.500  1.588740  153.204  31.2817  6.438527
  7104.688  7104.700  0.500  1.588857  153.212  31.2795  6.412260
  7105.591  7105.600  0.500  1.589118  153.139  31.2565  6.375818
  7106.490  7106.500  0.500  1.589709  153.12  31.2341  6.325307
  7107.383  7107.400  0.500  1.590698  153.078  31.1948  6.255406
  7108.291  7108.300  0.500  1.591513  153.032  31.1599  6.156193
  7109.188  7109.200  0.500  1.593150  152.953  31.0929  5.989424
  7110.095  7110.100  0.500  1.596458  152.921  30.9837  5.640777
  7110.995  7111.000  0.500  1.606047  152.873  30.6785  4.736174
  7111.889  7111.900  0.500  1.617724  152.739  30.2957  3.389246
  7112.796  7112.800  0.500  1.617237  152.672  30.2971  2.643354
  7113.699  7113.700  0.500  1.617761  152.609  30.2689  2.254394
  7114.603  7114.600  0.500  1.619496  152.536  30.2018  1.977917
  7115.498  7115.500  0.500  1.628555  152.484  29.9194  1.830126
  7116.393  7116.400  0.500  1.646871  152.45  29.3698  1.741460
  7117.299  7117.300  0.500  1.672744  152.42  28.614  1.587948
  7118.201  7118.200  0.500  1.728866  152.401  27.0489  1.271691
  7119.099  7119.100  0.500  1.854857  152.338  23.8371  0.891616
  7120.000  7120.000  0.500  2.031477  152.258  19.9674  0.586691
  7120.892  7120.900  0.500  2.237807  152.221  16.2408  0.367367
  7121.803  7121.800  0.500  2.444469  152.164  13.2036  0.236987
  7122.705  7122.700  0.500  2.595063  152.1  11.3529  0.170645
  7123.600  7123.600  0.500  2.731429  152.066  9.903494  0.129868
  7124.499  7124.500  0.500  2.913701  152.011  8.250311  0.097134
  7125.401  7125.400  0.500  3.118729  151.955  6.718448  0.071794
  7126.301  7126.300  0.500  3.244798  151.909  5.920880  0.057647
  7127.203  7127.200  0.500  3.207959  151.848  6.140573  0.053718
  7128.097  7128.100  0.500  3.084371  151.766  6.944637  0.053502
  7128.994  7129.000  0.500  2.984353  151.722  7.672931  0.050966
  7129.897  7129.900  0.500  2.916561  151.628  8.206020  0.047200
  7130.800  7130.800  0.500  2.864072  151.551  8.643863  0.045605
  7131.704  7131.700  0.500  2.808527  151.478  9.133203  0.048888
  7132.597  7132.600  0.500  2.751245  151.431  9.668620  0.057222
  7133.498  7133.500  0.500  2.687548  151.664  10.3204  0.069403
  7134.398  7134.400  0.500  2.628888  151.961  10.9653  0.082409
  7135.301  7135.300  0.500  2.585921  151.955  11.4463  0.093342
  7136.201  7136.200  0.500  2.559581  151.93  11.7499  0.099884
  7136.996  7137.000  0.500  2.551868  151.934  11.8411  0.101775
  7140.023  7140.010  0.500  2.547240  151.935  11.8961  0.091502
  7143.194  7143.200  0.500  2.547785  151.919  11.8884  0.089223
  7146.563  7146.560  0.500  2.480647  151.923  12.7143  0.092960
  7150.083  7150.080  0.500  2.387930  151.88  13.9455  0.085170
  7153.782  7153.780  0.500  2.390969  151.88  13.9033  0.080028
  7157.654  7157.650  0.500  2.426533  151.844  13.4143  0.080527
  7161.707  7161.700  0.500  2.477775  151.773  12.7383  0.077658
  7165.913  7165.910  0.500  2.568835  151.659  11.6208  0.074901
  7170.294  7170.290  0.500  2.642107  151.563  10.793  0.072625
  7174.853  7174.850  0.500  2.650160  151.486  10.701  0.081481
  7179.583  7179.580  0.500  2.599925  151.412  11.2468  0.098661
  7184.487  7184.480  0.500  2.565163  151.257  11.6327  0.099854
  7189.559  7189.550  0.500  2.538884  151.23  11.9403  0.088663
  7194.796  7194.790  0.500  2.508360  151.052  12.2959  0.079649
  7200.217  7200.210  0.500  2.475541  150.946  12.6972  0.094231
  7205.806  7205.790  0.500  2.458912  150.835  12.9006  0.119920
  7211.562  7211.550  0.500  2.446849  150.67  13.0429  0.109055
  7217.489  7217.480  0.500  2.445357  150.516  13.049  0.066302
  7223.595  7223.580  0.500  2.462660  150.342  12.8104  0.061903
  7229.860  7229.850  0.500  2.479677  150.412  12.6001  0.091784
  7236.299  7236.290  0.500  2.485575  150.247  12.5122  0.127621
  7242.910  7242.900  0.500  2.481618  150.137  12.5527  0.127088
  7249.701  7249.690  0.500  2.467991  149.871  12.7023  0.114161
  7256.664  7256.650  0.500  2.451367  149.85  12.9134  0.123660
  7263.782  7263.770  0.500  2.438613  138.353  12.0757  0.108304
  7271.081  7271.070  0.500  2.425070  149.992  13.2701  0.107810
  7278.555  7278.550  0.500  2.412281  149.932  13.4355  0.098341
  7286.200  7286.190  0.500  2.398770  149.542  13.5829  0.089714
  7294.007  7294.000  0.500  2.383579  149.574  13.7937  0.101202
  7302.003  7301.990  0.500  2.370716  147.704  13.7976  0.131817
  7310.157  7310.150  0.500  2.364301  149.362  14.0423  0.148428
  7318.486  7318.470  0.500  2.360217  149.161  14.0807  0.149251
  7326.981  7326.970  0.500  2.354240  148.972  14.1473  0.151476
  7335.663  7335.650  0.500  2.346068  148.769  14.2438  0.159818
  7344.497  7344.490  0.500  2.336545  148.528  14.3568  0.155805
  7353.515  7353.500  0.500  2.325309  148.348  14.5015  0.134386
  7362.696  7362.690  0.500  2.311988  148.126  14.674  0.122042
  7372.063  7372.050  0.500  2.298033  147.921  14.8596  0.129042
  7381.584  7381.570  0.500  2.282985  147.68  15.0603  0.171677
  7391.282  7391.270  0.500  2.268351  147.434  15.2569  0.191089
  7401.155  7401.150  0.500  2.254838  147.195  15.4394  0.187360
  7411.201  7411.190  0.500  2.243826  147.496  15.6422  0.190083
  7421.404  7421.400  0.500  2.235185  147.179  15.7441  0.194208
  7431.800  7431.790  0.500  2.226483  146.893  15.8508  0.202720
  7442.354  7442.350  0.500  2.215987  146.521  15.9775  0.194829
  7453.098  7453.080  0.500  2.203591  145.187  16.0295  0.184317
  7463.995  7463.980  0.500  2.190222  146.019  16.3383  0.192178
  7475.063  7475.050  0.500  2.177110  145.797  16.5289  0.213187
  7486.322  7486.290  0.500  2.164242  145.416  16.6991  0.231646
  7497.729  7497.710  0.500  2.151192  145.071  16.8784  0.246724
  7509.309  7509.290  0.500  2.137743  144.707  17.064  0.246669
  7521.047  7521.050  0.500  2.124535  144.325  17.2452  0.254098
  7532.989  7532.980  0.500  2.112017  143.927  17.4143  0.256870
  7545.115  7545.080  0.500  2.099975  143.491  17.5718  0.264155
  7557.351  7557.350  0.500  2.087841  143.071  17.7343  0.265701
  7569.779  7569.790  0.500  2.075651  142.578  17.8899  0.267394
  7582.427  7582.410  0.500  2.062711  142.166  18.0706  0.287701
  7595.177  7595.190  0.500  2.049937  141.526  18.2205  0.300672
  7608.169  7608.150  0.500  2.037328  140.478  18.315  0.307889
  7621.272  7621.280  0.500  2.023960  140.286  18.5362  0.319119
  7634.576  7634.580  0.500  2.010628  140.011  18.7481  0.327406
  7648.067  7648.050  0.500  1.996768  139.526  18.9439  0.343840
  7661.678  7661.700  0.500  1.982879  139.064  19.1452  0.352736
  7675.506  7675.510  0.500  1.969403  138.404  19.3129  0.356187
  7689.488  7689.500  0.500  1.956322  138.071  19.5202  0.363937
  7703.685  7703.660  0.500  1.943389  137.324  19.6673  0.378048
  7717.998  7717.990  0.500  1.930347  136.738  19.8404  0.394052
  7732.485  7732.490  0.500  1.916818  136.19  20.03  0.407328
  7747.134  7747.160  0.500  1.903486  135.633  20.2159  0.419370
  7761.987  7762.000  0.500  1.889854  135.004  20.3982  0.431888
  7777.013  7777.020  0.500  1.875839  134.441  20.6  0.448807
  7792.195  7792.200  0.500  1.862221  133.785  20.7805  0.462523
  7807.579  7807.560  0.500  1.848358  133.163  20.9726  0.474057
  7823.112  7823.090  0.500  1.834407  132.569  21.1724  0.487038
  7838.767  7838.790  0.500  1.820817  131.641  21.3118  0.499140
  7854.653  7854.660  0.500  1.807255  130.347  21.3905  0.511973
  7870.693  7870.710  0.500  1.793520  130.52  21.7151  0.533641
  7886.902  7886.920  0.500  1.779900  129.817  21.8943  0.551359
  7903.287  7903.310  0.500  1.766339  129.013  22.0558  0.568474
  7919.846  7919.870  0.500  1.752856  128.301  22.2318  0.585631
  7936.575  7936.600  0.500  1.738829  127.206  22.3535  0.600728
  7953.474  7953.500  0.500  1.725051  126.507  22.539  0.616889
  7964.840  7964.860  0.500  1.715858  125.895  22.6371  0.627402