File: xdidata/Fe/Fe-Hematite.xdi
# XDI/1.0 BlueSky/1.10.0 BMM/2023-1.0-py310-tiled
# Beamline.name: BMM (06BM) -- Beamline for Materials Measurement (NIST)
# Beamline.xray_source: NSLS-II three-pole wiggler
# Beamline.collimation: paraboloid mirror, 5 nm Rh on 30 nm Pt
# Beamline.focusing: not in use
# Beamline.harmonic_rejection: flat mirror, Si stripe, pitch = 7.0 mrad relative to beam
# Beamline.software: Bluesky 1.10.0, Ophyd 1.7.0, DataBroker 2.0.0b13, Python 3.10.8, 2023-1.0-py310-tiled
# Detector.I0: 10 cm N2
# Detector.I1: 25 cm N2
# Detector.I2: 25 cm N2
# Element.symbol: Fe
# Element.edge: K
# Element.reference: Fe
# Element.reference_material: Fe foil
# Facility.name: NSLS-II
# Facility.energy: 3.0
# Facility.current: 399.9
# Facility.mode: top-off
# Facility.GUP: 123456
# Facility.SAF: 301027
# Facility.cycle: 2023-2
# Mono.name: Si(111)
# Mono.d_spacing: 3.13519
# Mono.encoder_resolution: 0.0000050 deg/ct
# Mono.angle_offset: 16.0754 deg
# Mono.scan_mode: pseudo channel cut
# Mono.scan_type: step
# Mono.direction: forward in energy
# Sample.name: alpha-Fe2O3
# Sample.prep: powder on tape
# Sample.x: 116.329 mm
# Sample.y: 114.126 mm
# Sample.SDD_position: 205.000 mm
# Scan.experimenters: Bruce Ravel
# Scan.edge_energy: 7112.0
# Scan.start_time: 2023-05-05T16:46:36
# Scan.end_time: 2023-05-05T16:54:47
# Scan.transient_id: 74496
# Scan.uid: 130682c6-150e-4d2a-af8b-67bdc718fbff
# Scan.plot_hint: ln(I0/It)  --  ln($5/$6)
# Column.1: energy eV
# Column.2: requested_energy eV
# Column.3: measurement_time seconds
# Column.4: xmu
# Column.5: I0 nA
# Column.6: It nA
# Column.7: Ir nA
# ///////////
# Welcome to BMM
# -----------
# energy  requested_energy  measurement_time  xmu  I0  It  Ir
  6911.995  6912.000  0.500  1.756907  153.765  26.5364  4.981625
  6942.011  6942.000  0.500  1.725915  153.625  27.3468  5.244414
  6972.014  6972.000  0.500  1.695789  153.648  28.1873  5.517986
  7002.011  7002.000  0.500  1.665712  153.608  29.0405  5.802352
  7032.008  7032.000  0.500  1.636362  153.456  29.876  6.085854
  7062.012  7062.000  0.500  1.607723  152.53  30.5583  6.335446
  7083.978  7084.000  0.500  1.587784  152.918  31.253  6.537738
  7090.313  7090.000  0.500  1.582263  153.055  31.4543  6.581711
  7095.984  7096.000  0.500  1.577688  152.987  31.5844  6.595829
  7101.995  7102.000  0.500  1.573148  152.921  31.7144  6.563974
  7102.882  7102.900  0.500  1.572376  152.921  31.7389  6.553699
  7103.781  7103.800  0.500  1.571897  152.884  31.7465  6.532596
  7104.686  7104.700  0.500  1.571164  152.85  31.7628  6.508697
  7105.587  7105.600  0.500  1.570954  152.86  31.7715  6.476927
  7106.492  7106.500  0.500  1.570581  152.825  31.776  6.430658
  7107.389  7107.400  0.500  1.570388  152.804  31.7779  6.368234
  7108.289  7108.300  0.500  1.569775  152.785  31.7933  6.273238
  7109.188  7109.200  0.500  1.569772  152.771  31.7906  6.111130
  7110.095  7110.100  0.500  1.570040  152.736  31.7747  5.755390
  7110.997  7111.000  0.500  1.570757  152.67  31.7382  4.816549
  7111.893  7111.900  0.500  1.574129  153.102  31.7208  3.476888
  7112.788  7112.800  0.500  1.584757  153.029  31.3705  2.712039
  7113.695  7113.700  0.500  1.593096  152.975  31.0991  2.296578
  7114.598  7114.600  0.500  1.596743  152.936  30.9779  2.017463
  7115.500  7115.500  0.500  1.591840  152.923  31.1277  1.899200
  7116.399  7116.400  0.500  1.591466  152.899  31.1343  1.841625
  7117.293  7117.300  0.500  1.594046  152.869  31.048  1.710419
  7118.197  7118.200  0.500  1.596075  152.826  30.9764  1.433226
  7119.097  7119.100  0.500  1.602223  152.785  30.7783  1.128123
  7120.000  7120.000  0.500  1.614973  152.748  30.381  0.872293
  7120.896  7120.900  0.500  1.640186  152.714  29.618  0.653377
  7121.797  7121.800  0.500  1.682634  152.658  28.3767  0.501251
  7122.700  7122.700  0.500  1.749978  152.609  26.52  0.394069
  7123.604  7123.600  0.500  1.823201  152.569  24.6411  0.319724
  7124.495  7124.500  0.500  1.882141  152.537  23.2258  0.270607
  7125.397  7125.400  0.500  1.949889  152.483  21.6968  0.229629
  7126.301  7126.300  0.500  2.031042  152.414  19.9965  0.192946
  7127.199  7127.200  0.500  2.115560  152.333  18.3662  0.159327
  7128.102  7128.100  0.500  2.192614  152.289  16.9992  0.129386
  7128.996  7129.000  0.500  2.260765  152.236  15.8738  0.104212
  7129.899  7129.900  0.500  2.300006  152.138  15.2531  0.086798
  7130.802  7130.800  0.500  2.310365  152.066  15.0887  0.079150
  7131.704  7131.700  0.500  2.324138  151.977  14.8737  0.079771
  7132.599  7132.600  0.500  2.346254  151.951  14.5458  0.086663
  7133.498  7133.500  0.500  2.354434  151.963  14.4285  0.097842
  7134.398  7134.400  0.500  2.337217  151.958  14.6785  0.111487
  7135.301  7135.300  0.500  2.303732  151.952  15.1778  0.124397
  7136.201  7136.200  0.500  2.272116  151.928  15.6629  0.133640
  7136.994  7137.000  0.500  2.253819  151.906  15.9497  0.137218
  7140.030  7140.010  0.500  2.182396  151.896  17.1294  0.131333
  7143.194  7143.200  0.500  2.114225  151.862  18.3339  0.137848
  7146.557  7146.560  0.500  2.104497  151.85  18.5115  0.135126
  7150.080  7150.080  0.500  2.070806  151.826  19.1428  0.116675
  7153.784  7153.780  0.500  2.024684  151.794  20.0422  0.115298
  7157.650  7157.650  0.500  1.985580  151.755  20.8361  0.125005
  7161.703  7161.700  0.500  1.970354  151.681  21.1455  0.129012
  7165.909  7165.910  0.500  1.981380  151.559  20.8967  0.134706
  7170.294  7170.290  0.500  2.006682  151.446  20.3594  0.136758
  7174.856  7174.850  0.500  2.060407  151.367  19.2845  0.147051
  7179.587  7179.580  0.500  2.085185  151.289  18.8028  0.165224
  7184.483  7184.480  0.500  2.081691  151.213  18.8592  0.161819
  7189.557  7189.550  0.500  2.069496  151.131  19.0802  0.141138
  7194.803  7194.790  0.500  2.052206  150.903  19.3837  0.125650
  7200.215  7200.210  0.500  2.029873  150.821  19.8107  0.147451
  7205.801  7205.790  0.500  2.006699  150.708  20.26  0.188811
  7211.555  7211.550  0.500  1.994328  151.092  20.5644  0.170963
  7217.489  7217.480  0.500  1.992104  150.947  20.5904  0.104054
  7223.588  7223.580  0.500  1.994986  150.774  20.5076  0.099349
  7229.860  7229.850  0.500  1.985775  150.841  20.7066  0.152238
  7236.303  7236.290  0.500  1.975963  150.678  20.8882  0.213587
  7242.910  7242.900  0.500  1.968887  150.593  21.0247  0.212441
  7249.699  7249.690  0.500  1.953394  150.353  21.3189  0.191991
  7256.659  7256.650  0.500  1.947993  150.345  21.4332  0.204812
  7263.784  7263.770  0.500  1.954955  135.776  19.2219  0.172146
  7271.090  7271.070  0.500  1.951104  150.482  21.3861  0.173268
  7278.568  7278.550  0.500  1.947627  150.477  21.4598  0.156840
  7286.207  7286.190  0.500  1.941663  150.119  21.5368  0.142180
  7294.018  7294.000  0.500  1.928064  150.116  21.8313  0.160674
  7302.006  7301.990  0.500  1.912115  148.684  21.9706  0.210451
  7310.163  7310.150  0.500  1.893402  149.995  22.583  0.238869
  7318.481  7318.470  0.500  1.875415  149.779  22.9598  0.243847
  7326.981  7326.970  0.500  1.869029  149.621  23.0826  0.247198
  7335.661  7335.650  0.500  1.872061  149.477  22.9906  0.258150
  7344.502  7344.490  0.500  1.871246  149.245  22.9736  0.248648
  7353.510  7353.500  0.500  1.859041  149.076  23.2294  0.214904
  7362.703  7362.690  0.500  1.845356  148.849  23.5136  0.195418
  7372.058  7372.050  0.500  1.829361  148.692  23.8675  0.207492
  7381.581  7381.570  0.500  1.817082  148.46  24.1247  0.275510
  7391.277  7391.270  0.500  1.806190  148.244  24.3533  0.305223
  7401.155  7401.150  0.500  1.800974  148.044  24.4476  0.296613
  7411.194  7411.190  0.500  1.797730  147.79  24.4851  0.297780
  7421.406  7421.400  0.500  1.788290  147.514  24.6711  0.304218
  7431.800  7431.790  0.500  1.773421  147.244  24.9949  0.320148
  7442.354  7442.350  0.500  1.756843  146.884  25.3505  0.309330
  7453.086  7453.080  0.500  1.743852  145.323  25.4091  0.292341
  7463.988  7463.980  0.500  1.735009  146.464  25.8361  0.304494
  7475.063  7475.050  0.500  1.726655  146.253  26.0153  0.335690
  7486.305  7486.290  0.500  1.717729  145.929  26.1904  0.363448
  7497.722  7497.710  0.500  1.706144  145.605  26.4367  0.386731
  7509.297  7509.290  0.500  1.694335  145.216  26.6793  0.386028
  7521.064  7521.050  0.500  1.682350  144.855  26.9338  0.397288
  7532.997  7532.980  0.500  1.671128  144.499  27.1709  0.401004
  7545.095  7545.080  0.500  1.660351  144.093  27.3881  0.412050
  7557.368  7557.350  0.500  1.649030  143.688  27.622  0.414163
  7569.806  7569.790  0.500  1.637681  143.262  27.8544  0.416835
  7582.424  7582.410  0.500  1.625875  142.795  28.0934  0.448095
  7595.207  7595.190  0.500  1.613996  142.256  28.3219  0.468177
  7608.160  7608.150  0.500  1.601893  141.205  28.4549  0.478635
  7621.290  7621.280  0.500  1.591386  141.028  28.7193  0.495119
  7634.591  7634.580  0.500  1.580163  140.785  28.9935  0.506755
  7648.062  7648.050  0.500  1.566923  140.351  29.2894  0.531883
  7661.713  7661.700  0.500  1.554673  139.81  29.536  0.544737
  7675.521  7675.510  0.500  1.542766  139.428  29.8081  0.549950
  7689.511  7689.500  0.500  1.531532  139.45  30.1496  0.562797
  7703.675  7703.660  0.500  1.520465  138.74  30.3299  0.583855
  7717.998  7717.990  0.500  1.508945  138.139  30.5484  0.606996
  7732.501  7732.490  0.500  1.496319  137.58  30.8116  0.626968
  7747.175  7747.160  0.500  1.484151  137.103  31.0805  0.645245
  7762.018  7762.000  0.500  1.471323  136.476  31.3379  0.664615
  7777.039  7777.020  0.500  1.458859  135.812  31.5766  0.688861
  7792.208  7792.200  0.500  1.447275  135.196  31.7995  0.708704
  7807.564  7807.560  0.500  1.435127  134.65  32.0581  0.725769
  7823.091  7823.090  0.500  1.423177  134.029  32.294  0.743282
  7838.791  7838.790  0.500  1.411011  133.068  32.4549  0.760872
  7854.661  7854.660  0.500  1.398563  131.817  32.5523  0.780103
  7870.717  7870.710  0.500  1.385997  132.065  33.0261  0.812001
  7886.931  7886.920  0.500  1.373847  131.343  33.247  0.838066
  7903.329  7903.310  0.500  1.361636  130.62  33.4702  0.863390
  7919.887  7919.870  0.500  1.349300  129.91  33.7014  0.888551
  7936.613  7936.600  0.500  1.337097  128.969  33.868  0.911845
  7953.520  7953.500  0.500  1.325201  128.324  34.1022  0.934005
  7964.884  7964.860  0.500  1.316765  127.745  34.2357  0.949834