File: xdidata/Fe/Fe-Hornblende.xdi
# XDI/1.0 BlueSky/1.10.0 BMM/2023-1.0-py310-tiled
# Beamline.name: BMM (06BM) -- Beamline for Materials Measurement (NIST)
# Beamline.xray_source: NSLS-II three-pole wiggler
# Beamline.collimation: paraboloid mirror, 5 nm Rh on 30 nm Pt
# Beamline.focusing: not in use
# Beamline.harmonic_rejection: flat mirror, Si stripe, pitch = 7.0 mrad relative to beam
# Beamline.software: Bluesky 1.10.0, Ophyd 1.7.0, DataBroker 2.0.0b13, Python 3.10.8, 2023-1.0-py310-tiled
# Detector.I0: 10 cm N2
# Detector.I1: 25 cm N2
# Detector.I2: 25 cm N2
# Element.symbol: Fe
# Element.edge: K
# Element.reference: Fe
# Element.reference_material: Fe foil
# Facility.name: NSLS-II
# Facility.energy: 3.0
# Facility.current: 400.2
# Facility.mode: top-off
# Facility.GUP: 123456
# Facility.SAF: 301027
# Facility.cycle: 2023-2
# Mono.name: Si(111)
# Mono.d_spacing: 3.13519
# Mono.encoder_resolution: 0.0000050 deg/ct
# Mono.angle_offset: 16.0754 deg
# Mono.scan_mode: pseudo channel cut
# Mono.scan_type: step
# Mono.direction: forward in energy
# Sample.name: Ca2Fe4Al0.75(Si7AlO22)OH
# Sample.prep: PEG pellet
# Sample.x: 142.329 mm
# Sample.y: 114.126 mm
# Sample.SDD_position: 205.000 mm
# Scan.experimenters: Bruce Ravel
# Scan.edge_energy: 7112.0
# Scan.start_time: 2023-05-05T19:44:00
# Scan.end_time: 2023-05-05T19:52:16
# Scan.transient_id: 74596
# Scan.uid: d0565109-e969-418c-aca0-5e111c3b5b9f
# Scan.plot_hint: ln(I0/It)  --  ln($5/$6)
# Column.1: energy eV
# Column.2: requested_energy eV
# Column.3: measurement_time seconds
# Column.4: xmu
# Column.5: I0 nA
# Column.6: It nA
# Column.7: Ir nA
# ///////////
# courtesy Martin Stennett, University of Sheffield
# -----------
# energy  requested_energy  measurement_time  xmu  I0  It  Ir
  6912.003  6912.000  0.500  2.586037  154.408  11.6297  2.184183
  6942.011  6942.000  0.500  2.547555  154.408  12.0859  2.317960
  6972.034  6972.000  0.500  2.509974  154.454  12.5525  2.458247
  7002.013  7002.000  0.500  2.472952  154.397  13.0212  2.602097
  7032.012  7032.000  0.500  2.436167  154.251  13.4963  2.750688
  7062.004  7062.000  0.500  2.400657  153.356  13.903  2.883268
  7083.981  7084.000  0.500  2.375236  153.7  14.293  2.991357
  7089.983  7090.000  0.500  2.369077  153.843  14.3947  3.012945
  7095.984  7096.000  0.500  2.363205  154.142  14.5076  3.030283
  7101.999  7102.000  0.500  2.357672  154.04  14.5784  3.018751
  7102.884  7102.900  0.500  2.356952  153.997  14.5848  3.012150
  7103.781  7103.800  0.500  2.356568  153.988  14.5896  3.003070
  7104.681  7104.700  0.500  2.355865  153.957  14.5969  2.993565
  7105.589  7105.600  0.500  2.355343  153.934  14.6024  2.978687
  7106.490  7106.500  0.500  2.355016  153.901  14.604  2.957968
  7107.387  7107.400  0.500  2.354855  153.891  14.6054  2.929780
  7108.291  7108.300  0.500  2.354757  153.842  14.6022  2.885818
  7109.191  7109.200  0.500  2.354970  153.82  14.597  2.812173
  7110.097  7110.100  0.500  2.356135  153.788  14.5769  2.655385
  7110.999  7111.000  0.500  2.359949  153.695  14.5126  2.240251
  7111.893  7111.900  0.500  2.364868  153.577  14.4304  1.613283
  7112.794  7112.800  0.500  2.368035  153.525  14.3799  1.255766
  7113.697  7113.700  0.500  2.370155  153.452  14.3425  1.069582
  7114.600  7114.600  0.500  2.370587  153.394  14.331  0.940216
  7115.500  7115.500  0.500  2.370799  153.368  14.3255  0.877820
  7116.395  7116.400  0.500  2.375452  153.326  14.2551  0.846707
  7117.303  7117.300  0.500  2.391056  153.273  14.0295  0.779170
  7118.197  7118.200  0.500  2.425008  153.219  13.5564  0.638493
  7119.101  7119.100  0.500  2.488866  153.194  12.7157  0.475544
  7119.998  7120.000  0.500  2.586301  153.144  11.5315  0.339189
  7120.894  7120.900  0.500  2.701877  153.114  10.2708  0.232031
  7121.803  7121.800  0.500  2.777449  153.06  9.519850  0.170640
  7122.700  7122.700  0.500  2.840764  152.993  8.931889  0.134838
  7123.600  7123.600  0.500  2.954658  152.953  7.968302  0.105000
  7124.499  7124.500  0.500  3.090295  152.888  6.954630  0.082116
  7125.399  7125.400  0.500  3.178971  152.835  6.362287  0.068330
  7126.303  7126.300  0.500  3.198754  152.773  6.235109  0.060860
  7127.203  7127.200  0.500  3.209775  152.735  6.165242  0.054158
  7128.097  7128.100  0.500  3.245903  152.633  5.942521  0.046144
  7128.998  7129.000  0.500  3.319453  152.576  5.519074  0.037015
  7129.901  7129.900  0.500  3.399699  152.498  5.090900  0.029655
  7130.804  7130.800  0.500  3.399041  152.422  5.091716  0.027119
  7131.701  7131.700  0.500  3.334529  152.318  5.427301  0.029193
  7132.597  7132.600  0.500  3.273026  152.254  5.769160  0.034349
  7133.498  7133.500  0.500  3.223168  152.268  6.064624  0.041003
  7134.400  7134.400  0.500  3.171582  152.258  6.385260  0.048225
  7135.305  7135.300  0.500  3.123002  152.233  6.702033  0.054940
  7136.199  7136.200  0.500  3.089038  152.214  6.932698  0.059275
  7137.000  7137.000  0.500  3.069909  152.182  7.065119  0.061058
  7140.026  7140.010  0.500  3.035812  152.188  7.310448  0.056473
  7143.188  7143.200  0.500  3.041434  152.1  7.265280  0.054907
  7146.557  7146.560  0.500  2.992631  152.663  7.656872  0.056379
  7150.080  7150.080  0.500  2.924505  152.604  8.193501  0.050349
  7153.784  7153.780  0.500  2.895544  152.566  8.432162  0.048834
  7157.658  7157.650  0.500  2.900988  152.495  8.382477  0.050525
  7161.707  7161.700  0.500  2.930628  152.403  8.132777  0.050053
  7165.911  7165.910  0.500  2.970344  152.277  7.809621  0.050594
  7170.294  7170.290  0.500  2.988171  152.102  7.662798  0.051695
  7174.860  7174.850  0.500  3.003058  151.995  7.544285  0.057810
  7179.585  7179.580  0.500  3.012066  151.91  7.472431  0.065865
  7184.492  7184.480  0.500  3.007103  151.787  7.503547  0.064831
  7189.552  7189.550  0.500  2.987666  151.67  7.644904  0.057156
  7194.801  7194.790  0.500  2.961965  151.437  7.831878  0.050905
  7200.217  7200.210  0.500  2.934730  151.33  8.042417  0.059925
  7205.797  7205.790  0.500  2.915116  151.182  8.193712  0.076512
  7211.560  7211.550  0.500  2.908959  151.01  8.234925  0.069278
  7217.494  7217.480  0.500  2.906670  150.83  8.243995  0.042253
  7223.593  7223.580  0.500  2.898292  150.637  8.302707  0.040250
  7229.860  7229.850  0.500  2.885108  150.696  8.416207  0.061736
  7236.303  7236.290  0.500  2.882822  150.53  8.426149  0.086303
  7242.914  7242.900  0.500  2.887124  150.388  8.382090  0.085123
  7249.701  7249.690  0.500  2.888783  150.144  8.354587  0.075517
  7256.668  7256.650  0.500  2.880577  150.123  8.422289  0.080906
  7263.782  7263.770  0.500  2.868584  138.852  7.883920  0.070881
  7271.081  7271.070  0.500  2.854967  150.245  8.647755  0.070636
  7278.559  7278.550  0.500  2.841128  150.218  8.766694  0.064465
  7286.202  7286.190  0.500  2.827306  149.781  8.862877  0.058806
  7294.016  7294.000  0.500  2.814998  149.834  8.975766  0.066085
  7302.003  7301.990  0.500  2.801700  147.913  8.979300  0.086171
  7310.163  7310.150  0.500  2.789585  149.618  9.193528  0.097550
  7318.483  7318.470  0.500  2.781526  149.44  9.256891  0.098627
  7326.987  7326.970  0.500  2.773238  149.183  9.317876  0.100165
  7335.663  7335.650  0.500  2.762485  149.026  9.408741  0.106049
  7344.500  7344.490  0.500  2.749436  148.836  9.520106  0.103634
  7353.515  7353.500  0.500  2.738259  148.634  9.614076  0.089383
  7362.703  7362.690  0.500  2.726233  148.429  9.716977  0.081093
  7372.067  7372.050  0.500  2.714250  148.222  9.820422  0.085480
  7381.588  7381.570  0.500  2.703419  147.979  9.911066  0.113436
  7391.277  7391.270  0.500  2.690522  147.739  10.0234  0.125899
  7401.155  7401.150  0.500  2.675863  147.518  10.1562  0.123728
  7411.203  7411.190  0.500  2.660627  147.286  10.2959  0.125506
  7421.413  7421.400  0.500  2.647471  146.972  10.41  0.128791
  7431.805  7431.790  0.500  2.635637  146.665  10.512  0.134897
  7442.364  7442.350  0.500  2.622907  146.33  10.6223  0.129947
  7453.088  7453.080  0.500  2.610944  144.946  10.6485  0.122882
  7463.995  7463.980  0.500  2.598050  145.81  10.851  0.128170
  7475.065  7475.050  0.500  2.584824  145.616  10.9808  0.141952
  7486.310  7486.290  0.500  2.570548  145.198  11.1067  0.154414
  7497.727  7497.710  0.500  2.556270  145.288  11.2734  0.165323
  7509.309  7509.290  0.500  2.542141  144.901  11.4034  0.165405
  7521.061  7521.050  0.500  2.529137  144.536  11.5235  0.170499
  7533.002  7532.980  0.500  2.515521  144.106  11.6467  0.172347
  7545.110  7545.080  0.500  2.501821  143.672  11.7719  0.177286
  7557.385  7557.350  0.500  2.487582  143.305  11.9102  0.178962
  7569.794  7569.790  0.500  2.472668  142.854  12.0511  0.180725
  7582.407  7582.410  0.500  2.458511  142.339  12.1788  0.194481
  7595.175  7595.190  0.500  2.444531  141.764  12.3004  0.203502
  7608.137  7608.150  0.500  2.430389  140.73  12.3846  0.208652
  7621.302  7621.280  0.500  2.416053  140.554  12.5477  0.216608
  7634.566  7634.580  0.500  2.401492  140.3  12.7088  0.222500
  7648.030  7648.050  0.500  2.386687  139.794  12.8518  0.233667
  7661.691  7661.700  0.500  2.371938  139.257  12.9926  0.240226
  7675.516  7675.510  0.500  2.356999  138.684  13.1339  0.242705
  7689.485  7689.500  0.500  2.342244  138.368  13.2988  0.248751
  7703.652  7703.660  0.500  2.327394  137.617  13.4245  0.258779
  7717.972  7717.990  0.500  2.312565  137.026  13.5666  0.270005
  7732.467  7732.490  0.500  2.297969  136.475  13.7107  0.279342
  7747.150  7747.160  0.500  2.282878  135.95  13.8656  0.288370
  7761.993  7762.000  0.500  2.267793  135.322  14.0113  0.297585
  7777.026  7777.020  0.500  2.252836  134.714  14.1585  0.309077
  7792.221  7792.200  0.500  2.237679  134.082  14.3073  0.319495
  7807.566  7807.560  0.500  2.222125  133.455  14.4637  0.328027
  7823.076  7823.090  0.500  2.206895  132.805  14.6141  0.336793
  7838.780  7838.790  0.500  2.191576  131.878  14.7361  0.345963
  7854.645  7854.660  0.500  2.176110  130.563  14.8166  0.355526
  7870.698  7870.710  0.500  2.160555  130.777  15.0735  0.371009
  7886.899  7886.920  0.500  2.144812  130.06  15.2287  0.384448
  7903.279  7903.310  0.500  2.129804  129.3  15.3686  0.397092
  7919.844  7919.870  0.500  2.114352  128.553  15.5178  0.409672
  7936.578  7936.600  0.500  2.098524  127.582  15.6463  0.421200
  7953.479  7953.500  0.500  2.082903  126.905  15.8083  0.433661
  7964.832  7964.860  0.500  2.072600  126.24  15.8883  0.441395