File: xdidata/Fe/Fe-IronPhosphate.xdi
# XDI/1.0 BlueSky/1.10.0 BMM/2023-1.0-py310-tiled
# Beamline.name: BMM (06BM) -- Beamline for Materials Measurement (NIST)
# Beamline.xray_source: NSLS-II three-pole wiggler
# Beamline.collimation: paraboloid mirror, 5 nm Rh on 30 nm Pt
# Beamline.focusing: not in use
# Beamline.harmonic_rejection: flat mirror, Si stripe, pitch = 7.0 mrad relative to beam
# Beamline.software: Bluesky 1.10.0, Ophyd 1.7.0, DataBroker 2.0.0b13, Python 3.10.8, 2023-1.0-py310-tiled
# Detector.I0: 10 cm N2
# Detector.I1: 25 cm N2
# Detector.I2: 25 cm N2
# Element.symbol: Fe
# Element.edge: K
# Element.reference: Fe
# Element.reference_material: Fe foil
# Facility.name: NSLS-II
# Facility.energy: 3.0
# Facility.current: 400.8
# Facility.mode: top-off
# Facility.GUP: 123456
# Facility.SAF: 301027
# Facility.cycle: 2023-2
# Mono.name: Si(111)
# Mono.d_spacing: 3.13519
# Mono.encoder_resolution: 0.0000050 deg/ct
# Mono.angle_offset: 16.0754 deg
# Mono.scan_mode: pseudo channel cut
# Mono.scan_type: step
# Mono.direction: forward in energy
# Sample.name: FePO4
# Sample.prep: powder on tape
# Sample.x: 116.329 mm
# Sample.y: 114.126 mm
# Sample.SDD_position: 205.000 mm
# Scan.experimenters: Bruce Ravel
# Scan.edge_energy: 7112.0
# Scan.start_time: 2023-05-05T17:12:59
# Scan.end_time: 2023-05-05T17:21:05
# Scan.transient_id: 74511
# Scan.uid: 43bba369-1f24-4edf-9205-895accda971d
# Scan.plot_hint: ln(I0/It)  --  ln($5/$6)
# Column.1: energy eV
# Column.2: requested_energy eV
# Column.3: measurement_time seconds
# Column.4: xmu
# Column.5: I0 nA
# Column.6: It nA
# Column.7: Ir nA
# ///////////
# Welcome to BMM
# -----------
# energy  requested_energy  measurement_time  xmu  I0  It  Ir
  6911.999  6912.000  0.500  1.127091  154.087  49.9203  9.376513
  6942.003  6942.000  0.500  1.104649  153.926  51  9.783686
  6972.016  6972.000  0.500  1.082206  153.927  52.1578  10.217
  7002.013  7002.000  0.500  1.061002  153.83  53.2418  10.6407
  7032.014  7032.000  0.500  1.039368  153.664  54.3475  11.0756
  7062.008  7062.000  0.500  1.018606  152.734  55.1519  11.4403
  7083.981  7084.000  0.500  1.004340  153.139  56.0928  11.7385
  7089.981  7090.000  0.500  1.000955  153.26  56.3274  11.7913
  7095.973  7096.000  0.500  0.997438  153.206  56.506  11.804
  7101.995  7102.000  0.500  0.994687  153.103  56.6234  11.7251
  7102.884  7102.900  0.500  0.994416  153.101  56.638  11.7002
  7103.781  7103.800  0.500  0.994337  153.077  56.6336  11.6608
  7104.686  7104.700  0.500  0.994208  153.051  56.6313  11.6128
  7105.587  7105.600  0.500  0.994001  153.037  56.6379  11.5511
  7106.492  7106.500  0.500  0.993862  153.015  56.6375  11.4702
  7107.389  7107.400  0.500  0.993872  152.983  56.6254  11.3557
  7108.289  7108.300  0.500  0.994419  152.968  56.5886  11.1759
  7109.193  7109.200  0.500  0.995251  152.928  56.5268  10.8778
  7110.093  7110.100  0.500  0.995972  152.868  56.4639  10.2543
  7110.995  7111.000  0.500  0.998338  152.781  56.2985  8.607048
  7111.893  7111.900  0.500  1.005219  152.701  55.883  6.179331
  7112.792  7112.800  0.500  1.028391  152.632  54.5783  4.743002
  7113.699  7113.700  0.500  1.082123  152.588  51.7084  3.836328
  7114.598  7114.600  0.500  1.065844  152.544  52.5417  3.429301
  7115.500  7115.500  0.500  1.020731  152.535  54.9632  3.359020
  7116.395  7116.400  0.500  1.009826  152.503  55.5543  3.291090
  7117.295  7117.300  0.500  1.010454  152.466  55.5058  3.067652
  7118.201  7118.200  0.500  1.013595  152.421  55.3153  2.572563
  7119.104  7119.100  0.500  1.018800  152.36  55.0062  2.028576
  7119.995  7120.000  0.500  1.030362  152.342  54.3674  1.572373
  7120.903  7120.900  0.500  1.058704  152.293  52.8312  1.174420
  7121.799  7121.800  0.500  1.109767  152.22  50.1771  0.891012
  7122.702  7122.700  0.500  1.190909  152.203  46.2613  0.690835
  7123.606  7123.600  0.500  1.289793  152.138  41.8878  0.545832
  7124.499  7124.500  0.500  1.351524  152.475  39.4674  0.461852
  7125.397  7125.400  0.500  1.379326  152.429  38.3737  0.407504
  7126.297  7126.300  0.500  1.397064  152.348  37.6789  0.364579
  7127.201  7127.200  0.500  1.398128  152.288  37.6242  0.327418
  7128.108  7128.100  0.500  1.400570  152.214  37.5142  0.286581
  7128.998  7129.000  0.500  1.423075  152.142  36.6619  0.241659
  7129.903  7129.900  0.500  1.453718  152.068  35.5384  0.203194
  7130.804  7130.800  0.500  1.478135  151.976  34.66  0.182007
  7131.699  7131.700  0.500  1.498327  151.881  33.9461  0.181550
  7132.599  7132.600  0.500  1.511365  151.873  33.5046  0.198744
  7133.501  7133.500  0.500  1.521036  151.854  33.1779  0.224000
  7134.398  7134.400  0.500  1.526311  151.845  33.0015  0.249616
  7135.303  7135.300  0.500  1.527820  151.841  32.9507  0.269203
  7136.203  7136.200  0.500  1.527782  151.819  32.9471  0.281103
  7136.994  7137.000  0.500  1.525975  151.775  32.9972  0.284048
  7140.026  7140.010  0.500  1.513097  151.766  33.4229  0.256789
  7143.216  7143.200  0.500  1.505960  151.773  33.664  0.253301
  7146.578  7146.560  0.500  1.499205  151.779  33.8935  0.247589
  7150.072  7150.080  0.500  1.483462  151.703  34.4139  0.210101
  7153.777  7153.780  0.500  1.451326  151.688  35.5343  0.204503
  7157.661  7157.650  0.500  1.416608  151.625  36.7743  0.220943
  7161.711  7161.700  0.500  1.387366  151.548  37.8464  0.231063
  7165.920  7165.910  0.500  1.374442  151.414  38.3049  0.246792
  7170.290  7170.290  0.500  1.374529  151.318  38.2772  0.257308
  7174.860  7174.850  0.500  1.392859  151.24  37.5625  0.286474
  7179.585  7179.580  0.500  1.400031  151.185  37.2806  0.327593
  7184.487  7184.480  0.500  1.407148  151.074  36.9891  0.317493
  7189.559  7189.550  0.500  1.412335  150.986  36.7761  0.272525
  7194.801  7194.790  0.500  1.410690  150.795  36.7901  0.238371
  7200.222  7200.210  0.500  1.407661  150.681  36.874  0.274531
  7205.806  7205.790  0.500  1.407341  150.561  36.8563  0.343867
  7211.557  7211.550  0.500  1.408473  150.407  36.7771  0.306858
  7217.496  7217.480  0.500  1.404299  150.246  36.8913  0.186878
  7223.588  7223.580  0.500  1.395248  150.084  37.1865  0.180286
  7229.862  7229.850  0.500  1.383590  150.136  37.6355  0.276196
  7236.301  7236.290  0.500  1.371648  149.959  38.0429  0.389384
  7242.905  7242.900  0.500  1.361089  149.862  38.4218  0.388851
  7249.696  7249.690  0.500  1.352416  149.646  38.7006  0.348409
  7256.664  7256.650  0.500  1.348565  149.665  38.855  0.371881
  7263.791  7263.770  0.500  1.348423  135.844  35.2719  0.316369
  7271.079  7271.070  0.500  1.348744  149.757  38.8719  0.315735
  7278.568  7278.550  0.500  1.347281  149.745  38.9255  0.284943
  7286.205  7286.190  0.500  1.341468  149.36  39.052  0.257856
  7294.018  7294.000  0.500  1.336192  149.364  39.2596  0.288931
  7302.001  7301.990  0.500  1.332024  147.813  39.0141  0.373753
  7310.166  7310.150  0.500  1.327837  149.182  39.5407  0.419198
  7318.486  7318.470  0.500  1.320591  148.971  39.7719  0.422327
  7326.981  7326.970  0.500  1.311492  149.261  40.2136  0.431165
  7335.663  7335.650  0.500  1.303284  149.051  40.4878  0.455026
  7344.502  7344.490  0.500  1.296358  148.804  40.7019  0.442179
  7353.508  7353.500  0.500  1.288406  148.677  40.9918  0.379543
  7362.703  7362.690  0.500  1.280638  148.45  41.2483  0.343410
  7372.058  7372.050  0.500  1.272986  148.245  41.5077  0.360825
  7381.584  7381.570  0.500  1.267392  148.015  41.6758  0.476541
  7391.277  7391.270  0.500  1.261878  147.796  41.8442  0.524993
  7401.160  7401.150  0.500  1.256587  147.556  41.9978  0.510777
  7411.201  7411.190  0.500  1.251325  147.302  42.1469  0.513247
  7421.408  7421.400  0.500  1.245057  146.991  42.3223  0.522898
  7431.802  7431.790  0.500  1.238251  146.697  42.5262  0.545772
  7442.352  7442.350  0.500  1.230132  146.398  42.7853  0.522890
  7453.091  7453.080  0.500  1.222456  144.939  42.6855  0.491733
  7463.985  7463.980  0.500  1.214298  145.872  43.312  0.510791
  7475.058  7475.050  0.500  1.206697  145.689  43.5877  0.563153
  7486.310  7486.290  0.500  1.198549  145.279  43.8206  0.608346
  7497.722  7497.710  0.500  1.191297  144.975  44.0472  0.645332
  7509.300  7509.290  0.500  1.183671  144.614  44.2741  0.641568
  7521.069  7521.050  0.500  1.175909  144.182  44.4858  0.657047
  7533.002  7532.980  0.500  1.168393  143.81  44.7058  0.660552
  7545.100  7545.080  0.500  1.161435  143.414  44.8939  0.675784
  7557.341  7557.350  0.500  1.154133  142.98  45.0859  0.676482
  7569.811  7569.790  0.500  1.147091  142.539  45.2646  0.678107
  7582.432  7582.410  0.500  1.139574  142.136  45.4772  0.725777
  7595.207  7595.190  0.500  1.131791  141.478  45.6204  0.754684
  7608.169  7608.150  0.500  1.123226  140.443  45.6763  0.769317
  7621.299  7621.280  0.500  1.114802  140.302  46.0163  0.794007
  7634.598  7634.580  0.500  1.106555  140.069  46.3204  0.810833
  7648.072  7648.050  0.500  1.098363  139.591  46.5419  0.845882
  7661.723  7661.700  0.500  1.089970  139.025  46.744  0.863677
  7675.531  7675.510  0.500  1.082334  138.511  46.9281  0.866916
  7689.516  7689.500  0.500  1.074129  138.116  47.1797  0.881891
  7703.672  7703.660  0.500  1.066118  137.39  47.3092  0.911626
  7718.000  7717.990  0.500  1.058072  136.774  47.4775  0.944858
  7732.511  7732.490  0.500  1.049987  136.227  47.6715  0.971011
  7747.170  7747.160  0.500  1.041735  135.712  47.8851  0.995447
  7762.026  7762.000  0.500  1.033651  135.102  48.0565  1.019663
  7777.021  7777.020  0.500  1.025372  134.561  48.2622  1.053902
  7792.203  7792.200  0.500  1.017148  133.903  48.4226  1.080530
  7807.569  7807.560  0.500  1.008456  133.318  48.632  1.101970
  7823.105  7823.090  0.500  0.999682  132.681  48.826  1.124904
  7838.809  7838.790  0.500  0.990918  131.718  48.8983  1.147702
  7854.677  7854.660  0.500  0.982305  130.485  48.8596  1.171990
  7870.736  7870.710  0.500  0.973888  130.703  49.3552  1.214385
  7886.945  7886.920  0.500  0.965686  130.032  49.506  1.249519
  7903.295  7903.310  0.500  0.957278  129.677  49.7877  1.285368
  7919.897  7919.870  0.500  0.948738  129.098  49.9906  1.318871
  7936.623  7936.600  0.500  0.940287  128.161  50.049  1.348279
  7953.482  7953.500  0.500  0.931718  127.482  50.2123  1.376670
  7964.889  7964.860  0.500  0.925960  126.904  50.2732  1.396553