File: xdidata/Fe/Fe-Ilmenite.xdi
# XDI/1.0 BlueSky/1.10.0 BMM/2023-1.0-py310-tiled
# Beamline.name: BMM (06BM) -- Beamline for Materials Measurement (NIST)
# Beamline.xray_source: NSLS-II three-pole wiggler
# Beamline.collimation: paraboloid mirror, 5 nm Rh on 30 nm Pt
# Beamline.focusing: not in use
# Beamline.harmonic_rejection: flat mirror, Si stripe, pitch = 7.0 mrad relative to beam
# Beamline.software: Bluesky 1.10.0, Ophyd 1.7.0, DataBroker 2.0.0b13, Python 3.10.8, 2023-1.0-py310-tiled
# Detector.I0: 10 cm N2
# Detector.I1: 25 cm N2
# Detector.I2: 25 cm N2
# Element.symbol: Fe
# Element.edge: K
# Element.reference: Fe
# Element.reference_material: Fe foil
# Facility.name: NSLS-II
# Facility.energy: 3.0
# Facility.current: 399.2
# Facility.mode: top-off
# Facility.GUP: 123456
# Facility.SAF: 301027
# Facility.cycle: 2023-2
# Mono.name: Si(111)
# Mono.d_spacing: 3.13519
# Mono.encoder_resolution: 0.0000050 deg/ct
# Mono.angle_offset: 16.0754 deg
# Mono.scan_mode: pseudo channel cut
# Mono.scan_type: step
# Mono.direction: forward in energy
# Sample.name: FeTiO3
# Sample.prep: PEG pellet
# Sample.x: 116.329 mm
# Sample.y: 114.126 mm
# Sample.SDD_position: 205.000 mm
# Scan.experimenters: Bruce Ravel
# Scan.edge_energy: 7112.0
# Scan.start_time: 2023-05-05T17:39:21
# Scan.end_time: 2023-05-05T17:47:28
# Scan.transient_id: 74526
# Scan.uid: 2a0cec3e-a24d-4c20-99a1-97dcad027227
# Scan.plot_hint: ln(I0/It)  --  ln($5/$6)
# Column.1: energy eV
# Column.2: requested_energy eV
# Column.3: measurement_time seconds
# Column.4: xmu
# Column.5: I0 nA
# Column.6: It nA
# Column.7: Ir nA
# ///////////
# courtesy Martin Stennett, University of Sheffield
# -----------
# energy  requested_energy  measurement_time  xmu  I0  It  Ir
  6911.997  6912.000  0.500  2.598170  153.757  11.441  2.146097
  6942.013  6942.000  0.500  2.560030  153.544  11.8693  2.274253
  6972.016  6972.000  0.500  2.522135  153.495  12.3238  2.410979
  7002.013  7002.000  0.500  2.485206  153.389  12.7786  2.551217
  7032.008  7032.000  0.500  2.448768  153.189  13.2356  2.693911
  7062.008  7062.000  0.500  2.413225  152.82  13.6814  2.834646
  7083.978  7084.000  0.500  2.388820  153.124  14.0472  2.936717
  7089.988  7090.000  0.500  2.382313  153.216  14.1475  2.958661
  7096.133  7096.000  0.500  2.376455  153.158  14.2252  2.968404
  7101.995  7102.000  0.500  2.372180  153.072  14.2781  2.953832
  7102.887  7102.900  0.500  2.371450  153.05  14.2865  2.948097
  7103.783  7103.800  0.500  2.371015  153.054  14.2931  2.938933
  7104.686  7104.700  0.500  2.370988  153.003  14.2887  2.926989
  7105.584  7105.600  0.500  2.371011  153.006  14.2886  2.911442
  7106.492  7106.500  0.500  2.370967  152.976  14.2865  2.890590
  7107.383  7107.400  0.500  2.370665  152.924  14.2859  2.862812
  7108.287  7108.300  0.500  2.371202  152.926  14.2785  2.818478
  7109.188  7109.200  0.500  2.372114  152.882  14.2613  2.744805
  7110.093  7110.100  0.500  2.374777  152.85  14.2205  2.586546
  7110.995  7111.000  0.500  2.382501  152.774  14.104  2.170943
  7111.887  7111.900  0.500  2.393880  152.681  13.9359  1.554914
  7112.792  7112.800  0.500  2.394393  152.592  13.9207  1.212926
  7113.699  7113.700  0.500  2.399584  152.569  13.8465  1.029095
  7114.598  7114.600  0.500  2.415018  152.522  13.6302  0.891402
  7115.500  7115.500  0.500  2.451144  152.488  13.1437  0.803190
  7116.391  7116.400  0.500  2.474209  152.475  12.8429  0.760337
  7117.295  7117.300  0.500  2.488032  152.426  12.6626  0.701422
  7118.199  7118.200  0.500  2.525551  152.378  12.1924  0.570209
  7119.101  7119.100  0.500  2.557725  152.368  11.8056  0.438102
  7119.998  7120.000  0.500  2.619890  152.309  11.0897  0.323861
  7120.896  7120.900  0.500  2.752176  152.252  9.711982  0.218480
  7121.797  7121.800  0.500  2.936383  152.193  8.074944  0.144636
  7122.702  7122.700  0.500  3.089708  152.162  6.925696  0.103635
  7123.602  7123.600  0.500  3.154426  152.113  6.489575  0.084819
  7124.493  7124.500  0.500  3.200157  152.068  6.197661  0.072593
  7125.403  7125.400  0.500  3.232743  152.009  5.996635  0.063732
  7126.301  7126.300  0.500  3.253090  151.947  5.873433  0.056861
  7127.201  7127.200  0.500  3.272984  151.859  5.754407  0.050042
  7128.102  7128.100  0.500  3.286571  151.788  5.674124  0.043509
  7128.996  7129.000  0.500  3.275602  151.68  5.732608  0.037928
  7129.901  7129.900  0.500  3.243793  151.67  5.917503  0.033889
  7130.802  7130.800  0.500  3.226111  151.588  6.019793  0.031655
  7131.704  7131.700  0.500  3.221855  151.505  6.042180  0.032307
  7132.603  7132.600  0.500  3.200879  151.472  6.168893  0.036300
  7133.496  7133.500  0.500  3.158236  151.442  6.436397  0.043186
  7134.398  7134.400  0.500  3.110585  151.453  6.751005  0.050708
  7135.305  7135.300  0.500  3.067708  151.451  7.046661  0.057324
  7136.203  7136.200  0.500  3.034056  151.442  7.287419  0.061758
  7136.994  7137.000  0.500  3.014845  151.414  7.427387  0.063693
  7140.028  7140.010  0.500  2.948788  151.893  7.959695  0.060974
  7143.218  7143.200  0.500  2.939076  151.884  8.036861  0.060264
  7146.587  7146.560  0.500  2.939795  151.879  8.030857  0.058497
  7150.072  7150.080  0.500  2.932104  151.841  8.090810  0.049315
  7153.779  7153.780  0.500  2.926268  151.829  8.137557  0.046707
  7157.656  7157.650  0.500  2.919614  151.797  8.190158  0.049054
  7161.716  7161.700  0.500  2.946498  151.698  7.967689  0.048500
  7165.915  7165.910  0.500  2.974151  151.575  7.744078  0.049724
  7170.299  7170.290  0.500  3.014160  151.513  7.437330  0.049818
  7174.858  7174.850  0.500  3.032476  151.422  7.297959  0.055412
  7179.583  7179.580  0.500  3.011427  151.359  7.450126  0.065391
  7184.485  7184.480  0.500  2.981041  151.28  7.675920  0.065701
  7189.559  7189.550  0.500  2.962658  151.205  7.814468  0.057794
  7194.798  7194.790  0.500  2.942839  150.971  7.958592  0.051512
  7200.222  7200.210  0.500  2.911720  150.844  8.203198  0.060814
  7205.810  7205.790  0.500  2.896363  150.652  8.319578  0.077176
  7211.560  7211.550  0.500  2.897831  150.484  8.298067  0.069086
  7217.491  7217.480  0.500  2.911943  150.289  8.171190  0.041368
  7223.593  7223.580  0.500  2.910798  150.057  8.167938  0.039525
  7229.860  7229.850  0.500  2.903656  150.076  8.227550  0.059916
  7236.301  7236.290  0.500  2.904323  149.843  8.209288  0.083588
  7242.917  7242.900  0.500  2.890831  149.731  8.314575  0.083936
  7249.701  7249.690  0.500  2.879676  149.429  8.390886  0.075229
  7256.666  7256.650  0.500  2.873154  149.338  8.440650  0.080467
  7263.782  7263.770  0.500  2.862512  136.62  7.804421  0.069620
  7271.088  7271.070  0.500  2.855303  149.45  8.599141  0.069695
  7278.564  7278.550  0.500  2.847890  149.383  8.659197  0.063142
  7286.202  7286.190  0.500  2.832548  148.939  8.766951  0.057760
  7294.012  7294.000  0.500  2.824849  148.936  8.834537  0.064634
  7302.006  7301.990  0.500  2.810923  147.242  8.856504  0.084323
  7310.163  7310.150  0.500  2.788812  148.685  9.143257  0.096457
  7318.492  7318.470  0.500  2.777874  148.481  9.231172  0.097605
  7326.981  7326.970  0.500  2.781626  148.283  9.184328  0.098088
  7335.661  7335.650  0.500  2.780143  148.076  9.185113  0.102668
  7344.504  7344.490  0.500  2.768909  147.811  9.272276  0.100292
  7353.512  7353.500  0.500  2.754561  147.649  9.395961  0.086640
  7362.703  7362.690  0.500  2.737711  147.42  9.540756  0.078980
  7372.063  7372.050  0.500  2.721658  147.21  9.681323  0.083738
  7381.586  7381.570  0.500  2.707724  146.987  9.802367  0.111365
  7391.282  7391.270  0.500  2.697588  146.779  9.888171  0.123515
  7401.160  7401.150  0.500  2.693160  146.519  9.914499  0.119891
  7411.201  7411.190  0.500  2.682923  146.261  9.998852  0.121053
  7421.411  7421.400  0.500  2.668247  146.033  10.1308  0.124672
  7431.800  7431.790  0.500  2.652671  145.737  10.2691  0.131146
  7442.357  7442.350  0.500  2.639115  145.329  10.3801  0.126215
  7453.088  7453.080  0.500  2.628569  143.988  10.3933  0.119136
  7463.990  7463.980  0.500  2.617992  145.451  10.6105  0.124584
  7475.060  7475.050  0.500  2.606707  145.182  10.7111  0.137769
  7486.312  7486.290  0.500  2.594009  144.847  10.8229  0.149556
  7497.729  7497.710  0.500  2.580254  144.465  10.9439  0.159525
  7509.300  7509.290  0.500  2.566323  144.117  11.0707  0.159576
  7521.073  7521.050  0.500  2.553648  143.716  11.1807  0.164381
  7532.982  7532.980  0.500  2.540875  143.313  11.2927  0.166099
  7545.098  7545.080  0.500  2.528101  142.936  11.4078  0.170936
  7557.343  7557.350  0.500  2.514920  142.507  11.5244  0.172051
  7569.774  7569.790  0.500  2.501752  142.087  11.6428  0.173586
  7582.412  7582.410  0.500  2.488553  141.564  11.754  0.186720
  7595.185  7595.190  0.500  2.475186  140.989  11.8638  0.195153
  7608.162  7608.150  0.500  2.462402  139.944  11.9275  0.199970
  7621.302  7621.280  0.500  2.448997  139.756  12.0721  0.207200
  7634.576  7634.580  0.500  2.434992  139.52  12.2217  0.212726
  7648.035  7648.050  0.500  2.421439  138.946  12.3376  0.223064
  7661.683  7661.700  0.500  2.406870  138.428  12.472  0.229360
  7675.501  7675.510  0.500  2.393364  137.896  12.5929  0.231404
  7689.490  7689.500  0.500  2.380042  137.526  12.7276  0.236773
  7703.640  7703.660  0.500  2.365930  136.695  12.8305  0.245930
  7717.970  7717.990  0.500  2.352222  136.18  12.9585  0.256450
  7732.513  7732.490  0.500  2.338444  135.628  13.0851  0.265275
  7747.147  7747.160  0.500  2.323920  135.15  13.2297  0.273656
  7762.011  7762.000  0.500  2.309536  134.506  13.3574  0.282184
  7777.039  7777.020  0.500  2.295432  133.88  13.4841  0.292997
  7792.185  7792.200  0.500  2.281329  133.274  13.6137  0.302547
  7807.590  7807.560  0.500  2.266652  132.7  13.7555  0.310141
  7823.123  7823.090  0.500  2.252161  132.071  13.8901  0.318733
  7838.820  7838.790  0.500  2.237509  131.123  13.994  0.327011
  7854.685  7854.660  0.500  2.223001  129.861  14.0618  0.335652
  7870.698  7870.710  0.500  2.208297  130.062  14.2922  0.350000
  7886.905  7886.920  0.500  2.193520  129.394  14.4305  0.362500
  7903.289  7903.310  0.500  2.179078  128.605  14.5511  0.374237
  7919.854  7919.870  0.500  2.164370  127.903  14.6861  0.385862
  7936.583  7936.600  0.500  2.150682  126.944  14.7768  0.396326
  7953.482  7953.500  0.500  2.135360  126.287  14.9273  0.407318
  7964.846  7964.860  0.500  2.125423  125.736  15.0106  0.415317