File: xdidata/Fe/Fe-K-Petedunnite.xdi
# XDI/1.0 BlueSky/1.10.0 BMM/2023-1.0-py310-tiled
# Beamline.name: BMM (06BM) -- Beamline for Materials Measurement (NIST)
# Beamline.xray_source: NSLS-II three-pole wiggler
# Beamline.collimation: paraboloid mirror, 5 nm Rh on 30 nm Pt
# Beamline.focusing: not in use
# Beamline.harmonic_rejection: flat mirror, Si stripe, pitch = 7.0 mrad relative to beam
# Beamline.software: Bluesky 1.10.0, Ophyd 1.7.0, DataBroker 2.0.0b13, Python 3.10.8, 2023-1.0-py310-tiled
# Detector.I0: 10 cm N2
# Detector.I1: 25 cm N2
# Detector.I2: 25 cm N2
# Detector.fluorescence: SII Vortex ME4 (4-element silicon drift)
# Detector.deadtime_correction: Xspress3
# Element.symbol: Fe
# Element.edge: K
# Element.reference: Fe
# Element.reference_material: Fe foil
# Facility.name: NSLS-II
# Facility.energy: 3.0
# Facility.current: 400.1
# Facility.mode: top-off
# Facility.GUP: 301027
# Facility.SAF: 310583
# Facility.cycle: 2023-2
# Mono.name: Si(111)
# Mono.d_spacing: 3.13519
# Mono.encoder_resolution: 0.0000050 deg/ct
# Mono.angle_offset: 16.0754 deg
# Mono.scan_mode: pseudo channel cut
# Mono.scan_type: step
# Mono.direction: forward in energy
# Sample.name: Ca(Zn,Mn,Fe,Mg)Si2O6
# Sample.prep: powder on tape
# Sample.x: 119.711 mm
# Sample.y: 114.376 mm
# Sample.SDD_position: 25.000 mm
# Scan.experimenters: Bruce Ravel
# Scan.edge_energy: 7112.0
# Scan.start_time: 2023-06-27T10:25:12
# Scan.end_time: 2023-06-27T10:42:39
# Scan.transient_id: 85117
# Scan.uid: 02ad399c-7d5d-432b-9c44-3b78d3ef97ef
# Scan.plot_hint: (Fe1+Fe2+Fe3+Fe4)/I0  --  ($8+$9+$10+$11)/$5
# Column.1: energy eV
# Column.2: requested_energy eV
# Column.3: measurement_time seconds
# Column.4: xmu
# Column.5: I0 nA
# Column.6: It nA
# Column.7: Ir nA
# Column.8: Fe1
# Column.9: Fe2
# Column.10: Fe3
# Column.11: Fe4
# ///////////
# sample courtesy Martin Stennett, University of Sheffield
# -----------
# energy  requested_energy  measurement_time  xmu  I0  It  Ir  Fe1  Fe2  Fe3  Fe4
  6912.001  6912.000  2.000  20.8242  591.614  224.975  41.035  3508.9  3111.33  2606.28  3093.36
  6952.018  6952.000  2.000  20.4479  594.526  232.505  43.6407  3441.82  3030.32  2642.28  3042.36
  6992.006  6992.000  2.000  20.0566  597.901  240.341  46.3865  3321.87  3110.35  2524.28  3035.37
  7032.004  7032.000  2.000  20.0304  600.156  247.836  49.1244  3363.33  3144.36  2575.3  2938.37
  7072.003  7072.000  2.000  20.412  601.323  254.959  51.7205  3430.08  3184.38  2708.33  2951.39
  7088.005  7088.000  2.000  21.1208  601.512  257.629  52.517  3532.24  3213.39  2864.35  3094.41
  7096.005  7096.000  2.000  20.6954  601.434  258.938  52.692  3394.81  3151.39  2819.35  3081.41
  7102.301  7102.300  2.000  21.7832  601.479  260.015  52.4755  3544.95  3261.4  3043.38  3252.44
  7103.490  7103.500  2.000  21.1957  603.149  260.921  52.4872  3468.97  3236.4  2952.37  3126.43
  7104.698  7104.700  2.000  21.7504  603  260.976  52.2654  3474.27  3371.41  3031.37  3238.44
  7105.897  7105.900  2.000  22.1599  602.919  261.164  51.9785  3628.35  3459.43  3003.38  3269.45
  7107.102  7107.100  2.000  22.4022  602.781  261.318  51.5488  3563.33  3585.45  3025.38  3329.45
  7108.306  7108.300  2.000  23.2018  602.688  261.498  50.8504  3761.14  3657.46  3189.4  3375.46
  7109.503  7109.500  2.000  23.9149  602.627  261.658  49.5797  3742.33  3794.48  3271.42  3603.5
  7110.706  7110.700  2.000  26.7199  602.404  261.735  46.3165  4218.61  4180.53  3710.47  3986.56
  7111.911  7111.900  2.000  35.1593  602.036  261.769  35.3086  5443  5585.74  4974.66  5163.75
  7113.107  7113.100  2.000  47.0144  601.737  261.762  23.6965  6892.25  7484.03  6886.96  7027.06
  7114.302  7114.300  2.000  54.698  601.637  261.913  18.9669  8363.75  8577.21  7907.13  8060.25
  7115.500  7115.500  2.000  58.4836  601.703  262.126  16.2837  8789.85  9178.31  8599.24  8622.34
  7116.715  7116.700  2.000  60.5015  601.667  262.322  15.3303  9122.72  9472.36  8847.28  8959.41
  7117.982  7117.900  2.000  63.6485  601.552  262.466  14.1299  9719.51  9944.47  9254.37  9369.5
  7119.144  7119.100  2.000  73.6782  601.17  262.537  11.0528  10843.9  11711.8  10946.7  10790.8
  7120.320  7120.300  2.000  87.0035  602.176  263.042  8.116327  12955  13709.2  12773  12954.2
  7121.511  7121.500  2.000  103.746  601.777  263.058  5.724139  15293.8  16332.7  15460.6  15344.8
  7122.707  7122.700  2.000  120.604  601.492  262.937  4.289460  17869.5  18914.3  17982.2  17776.4
  7123.909  7123.900  2.000  139.898  601.385  263.043  3.500971  20336.6  22213.2  20925.9  20657.1
  7125.102  7125.100  2.000  159.058  601.184  263.039  3.006354  23218.7  24792.9  23961.8  23650
  7126.307  7126.300  2.000  173.156  600.876  263.033  2.649542  25365  27242.6  25859.3  25578.6
  7127.509  7127.500  2.000  189.08  600.608  263.019  2.321161  27554.3  29343.2  28585.1  28080.4
  7128.705  7128.700  2.000  206.898  600.297  262.993  1.970798  29854.1  32133.1  31336  30877.3
  7129.897  7129.900  2.000  223.335  600.007  262.908  1.608006  32228.5  34915  33750.9  33108.2
  7131.108  7131.100  2.000  229.708  599.611  262.886  1.373482  33371.9  35518.2  34449  34396.5
  7132.310  7132.300  2.000  225.447  599.247  263.021  1.370372  32462.2  35027.1  34375.9  33233.2
  7133.507  7133.500  2.000  219.729  599.076  263.221  1.584700  31628.2  34110.8  33377.7  32517.9
  7134.707  7134.700  2.000  215.208  599.126  263.383  1.871725  31113.9  33322.5  32683.4  31816.7
  7135.910  7135.900  2.000  209.933  599.127  263.623  2.100966  30398.8  32549.2  31707.1  31121.5
  7137.005  7137.000  2.000  205.682  599.016  263.739  2.202272  29774.6  32038.1  31193.9  30200.2
  7141.063  7141.060  2.000  200.487  599.015  264.429  1.950473  28790.4  31323.8  30439.6  29540.9
  7145.435  7145.420  2.000  192.509  599.148  265.264  1.978775  28001.2  29889.4  29106.3  28344.6
  7150.091  7150.080  2.000  188.987  601.056  266.904  1.624957  27433.9  29537.3  28449.1  28171.5
  7155.060  7155.050  2.000  182.405  601.006  267.695  1.506216  26471.4  28625  27308.8  27221.2
  7160.337  7160.330  2.000  180.554  600.901  268.588  1.583812  26021.4  27899.8  27713.9  26860.1
  7165.920  7165.910  2.000  184.131  600.527  269.336  1.682493  26714.2  28724.1  27930.1  27207.3
  7171.804  7171.790  2.000  190.18  600.149  270.12  1.800501  27418.1  29689.4  28737.3  28291.6
  7177.998  7177.980  2.000  192.528  599.882  271.044  2.208510  27769.5  30228.6  29075.4  28420.7
  7184.494  7184.480  2.000  192.119  599.687  271.986  2.303266  27668.7  29699.4  29312.5  28530.7
  7191.294  7191.280  2.000  194.985  599.504  273.115  1.901367  28132.3  30100.6  29727.6  28933.8
  7198.383  7198.380  2.000  195.752  598.748  273.854  1.825706  28365.6  30542.8  29471.5  28825.9
  7205.795  7205.790  2.000  189.243  598.325  274.912  2.453768  27153.8  29795.5  28498.3  27781.6
  7213.516  7213.510  2.000  193.687  597.803  275.93  2.013864  28033.4  29940.6  29493.6  28318.7
  7221.533  7221.520  2.000  200.588  597.333  277.064  1.223501  28818.5  31353.1  30261.9  29384.1
  7229.856  7229.850  2.000  191.202  597.307  278.458  1.911075  27469.6  29586.6  28818.5  28331.8
  7238.496  7238.480  2.000  185.224  596.825  279.692  2.872793  26546.4  28779.4  28015.3  27205.5
  7247.419  7247.410  2.000  191.719  596.009  280.715  2.547930  27493.6  29559.6  28787.5  28425.9
  7256.662  7256.650  2.000  193.521  596.594  282.572  2.638078  27570.2  30019.8  29256.6  28607
  7266.198  7266.190  2.000  194.754  585.656  278.97  2.406554  27609.1  29843.7  28669.5  27936.7
  7276.049  7276.040  2.000  198.44  597.832  286.411  2.102543  28454.4  30749.1  29901.9  29528.4
  7286.200  7286.190  2.000  202.705  597.865  288.099  1.876573  28865.6  31607.4  30885.3  29831.5
  7296.652  7296.650  2.000  196.489  598.312  290.006  2.254286  28358.2  30215  29800  29188.3
  7307.406  7307.410  2.000  192.212  598.198  291.803  2.966905  27733.1  29757.9  29099.8  28390.1
  7318.472  7318.470  2.000  191.592  597.56  293.304  3.045938  27553  29658.9  28729.8  28546.2
  7329.849  7329.850  2.000  191.984  596.982  294.925  3.106733  27629.8  29737.9  29064.9  28178.1
  7341.527  7341.520  2.000  191.096  595.37  296.059  3.279167  27337  29491.8  28855.8  28088.1
  7353.503  7353.500  2.000  196.558  595.69  298.255  2.731697  28397.7  30454.2  29563.1  28672.4
  7365.792  7365.790  2.000  200.359  595.008  299.888  2.420755  28600.8  30813.4  30224.3  29576.7
  7378.379  7378.380  2.000  196.332  594.124  301.55  2.984376  28213.9  30469.2  29255  28707.4
  7391.272  7391.270  2.000  193.222  593.037  303.127  3.737005  27255.2  29645.1  29331.1  28356.4
  7404.469  7404.470  2.000  194.221  591.912  304.698  3.641390  27633.4  29750.1  29233  28345.4
  7417.985  7417.980  2.000  194.724  590.889  306.42  3.660871  27812.5  29870.2  29233.1  28144.4
  7431.795  7431.790  2.000  194.464  589.871  308.143  3.875001  27193.8  29822.3  29343.2  28349.5
  7445.910  7445.900  2.000  197.708  586.191  308.573  3.606010  27701.5  30004.3  29476.2  28712.6
  7460.319  7460.320  2.000  198.871  572.988  303.957  3.458330  27264.2  30019.2  28665  28002.4
  7475.060  7475.050  2.000  197.363  587.667  314.06  3.959422  27909.1  29903.4  29389.4  28781.8
  7490.081  7490.080  2.000  195.932  586.625  316.026  4.404020  27561.9  29725.3  29423.3  28227.6
  7505.417  7505.410  2.000  196.432  585.595  317.977  4.530839  27803.3  29699.5  29146.4  28380.8
  7521.059  7521.050  2.000  196.804  586.059  320.845  4.645509  27669.2  29815.5  29441.4  28412.8
  7536.989  7536.990  2.000  197.729  584.957  322.726  4.694637  27458.7  30159.7  29322.6  28722
  7553.239  7553.240  2.000  198.592  583.752  324.734  4.826800  27921.2  30042.8  29304.6  28660.1
  7569.792  7569.790  2.000  198.945  582.633  326.753  4.797467  27713.5  30260.8  29446.6  28491
  7586.650  7586.650  2.000  198.209  581.289  328.724  5.232859  27606.1  29759.7  29508.7  28342
  7603.811  7603.810  2.000  199.01  577.409  329.34  5.390249  27532.5  29854.8  29267.7  28255.1
  7621.275  7621.280  2.000  200.663  577.155  331.981  5.631556  27792.7  30233  29308.8  28479.3
  7639.051  7639.050  2.000  199.483  577.142  334.805  5.823570  27567.7  29951  29351.8  28259.2
  7657.133  7657.130  2.000  199.465  575.994  337.034  6.096789  27652.4  29709.9  29115.8  28412.4
  7675.516  7675.510  2.000  200.209  574.672  339.182  6.161204  27325.2  29921.1  29347  28461.4
  7694.204  7694.200  2.000  201.462  573.382  341.344  6.329719  27757.8  29956.2  29462.1  28338.5
  7713.198  7713.190  2.000  199.026  571.797  343.526  6.637852  27473.7  29597.1  28584.9  28146.5
  7732.495  7732.490  2.000  201.12  569.934  345.289  6.914094  27541.4  29699.2  29205.1  28179.5
  7752.091  7752.090  2.000  201.19  568.036  347.259  7.138974  27059.6  29751.3  29084.2  28387.7