File: xdidata/Fe/Fe-K-IronFoil.xdi
# XDI/1.0 BlueSky/1.10.0 BMM/2023-1.0-py310-tiled
# Beamline.name: BMM (06BM) -- Beamline for Materials Measurement (NIST)
# Beamline.xray_source: NSLS-II three-pole wiggler
# Beamline.collimation: paraboloid mirror, 5 nm Rh on 30 nm Pt
# Beamline.focusing: not in use
# Beamline.harmonic_rejection: flat mirror, Si stripe, pitch = 7.0 mrad relative to beam
# Beamline.software: Bluesky 1.10.0, Ophyd 1.7.0, DataBroker 2.0.0b13, Python 3.10.8, 2023-1.0-py310-tiled
# Detector.I0: 10 cm N2
# Detector.I1: 25 cm N2
# Detector.I2: 25 cm N2
# Element.symbol: Fe
# Element.edge: K
# Element.reference: Fe
# Element.reference_material: Fe foil
# Facility.name: NSLS-II
# Facility.energy: 3.0
# Facility.current: 399.7
# Facility.mode: top-off
# Facility.GUP: 301027
# Facility.SAF: 310583
# Facility.cycle: 2023-2
# Mono.name: Si(111)
# Mono.d_spacing: 3.13519
# Mono.encoder_resolution: 0.0000050 deg/ct
# Mono.angle_offset: 16.0754 deg
# Mono.scan_mode: pseudo channel cut
# Mono.scan_type: step
# Mono.direction: forward in energy
# Sample.name: Fe foil
# Sample.prep: reference foil
# Sample.x: 109.138 mm
# Sample.y: 153.150 mm
# Sample.SDD_position: 205.000 mm
# Scan.experimenters: Bruce Ravel
# Scan.edge_energy: 7112.0
# Scan.start_time: 2023-05-28T13:17:39
# Scan.end_time: 2023-05-28T13:25:42
# Scan.transient_id: 78714
# Scan.uid: b69c6f83-b7d6-4772-a0ba-608a9260d9af
# Scan.plot_hint: ln(It/Ir)  --  ln($6/$7)
# Column.1: energy eV
# Column.2: requested_energy eV
# Column.3: measurement_time seconds
# Column.4: xmu
# Column.5: I0 nA
# Column.6: It nA
# Column.7: Ir nA
# ///////////
# standard reference foil
# -----------
# energy  requested_energy  measurement_time  xmu  I0  It  Ir
  6912.001  6912.000  0.500  1.981854  152.384  141.274  19.4695
  6942.039  6942.000  0.500  1.956677  152.434  142.698  20.1671
  6972.006  6972.000  0.500  1.932054  152.596  144.236  20.8927
  7002.009  7002.000  0.500  1.907951  152.708  145.698  21.6192
  7032.012  7032.000  0.500  1.884662  152.853  147.206  22.3576
  7061.983  7062.000  0.500  1.863156  152.596  148.255  23.0065
  7083.989  7084.000  0.500  1.851434  151.909  148.579  23.3287
  7089.985  7090.000  0.500  1.850227  152.487  149.38  23.4827
  7095.988  7096.000  0.500  1.851421  152.958  150.134  23.5731
  7101.984  7102.000  0.500  1.858637  152.998  150.457  23.454
  7102.880  7102.900  0.500  1.860794  152.96  150.457  23.4035
  7103.783  7103.800  0.500  1.863671  152.968  150.466  23.3376
  7104.688  7104.700  0.500  1.867191  152.963  150.471  23.2564
  7105.591  7105.600  0.500  1.871761  152.968  150.525  23.1587
  7106.486  7106.500  0.500  1.877850  152.938  150.548  23.0215
  7107.387  7107.400  0.500  1.886170  152.932  150.613  22.8407
  7108.299  7108.300  0.500  1.898767  152.928  150.687  22.5659
  7109.197  7109.200  0.500  1.918752  152.915  150.708  22.1224
  7110.095  7110.100  0.500  1.958650  152.897  150.669  21.2516
  7110.993  7111.000  0.500  2.064833  152.84  150.705  19.1153
  7111.900  7111.900  0.500  2.345404  152.739  150.556  14.4245
  7112.796  7112.800  0.500  2.640116  152.68  150.54  10.7415
  7113.695  7113.700  0.500  2.814999  152.615  150.574  9.020074
  7114.596  7114.600  0.500  2.955360  152.594  150.617  7.841127
  7115.504  7115.500  0.500  3.046615  152.619  150.674  7.159976
  7116.404  7116.400  0.500  3.086014  152.572  150.666  6.883000
  7117.299  7117.300  0.500  3.128077  152.52  150.637  6.598169
  7118.199  7118.200  0.500  3.254612  152.52  150.693  5.816094
  7119.097  7119.100  0.500  3.470518  152.478  150.697  4.686826
  7120.006  7120.000  0.500  3.706676  152.461  150.663  3.700138
  7120.900  7120.900  0.500  3.965852  152.398  150.687  2.855799
  7121.795  7121.800  0.500  4.207518  152.352  150.682  2.242640
  7122.700  7122.700  0.500  4.400747  152.324  150.715  1.849002
  7123.600  7123.600  0.500  4.548750  152.299  150.728  1.594762
  7124.499  7124.500  0.500  4.665051  152.251  150.664  1.419066
  7125.401  7125.400  0.500  4.766427  152.2  150.677  1.282373
  7126.301  7126.300  0.500  4.857943  152.153  150.681  1.170254
  7127.203  7127.200  0.500  4.956650  152.099  150.662  1.060128
  7128.097  7128.100  0.500  5.073087  151.99  150.568  0.943013
  7129.004  7129.000  0.500  5.216519  151.97  150.624  0.817314
  7129.903  7129.900  0.500  5.367907  151.894  150.638  0.702557
  7130.802  7130.800  0.500  5.479340  151.811  150.508  0.627931
  7131.701  7131.700  0.500  5.505820  151.753  150.52  0.611572
  7132.601  7132.600  0.500  5.431785  151.687  150.494  0.658454
  7133.505  7133.500  0.500  5.306004  151.693  150.556  0.747014
  7134.407  7134.400  0.500  5.182155  151.682  150.559  0.845524
  7135.298  7135.300  0.500  5.091078  151.645  150.521  0.925915
  7136.192  7136.200  0.500  5.034170  151.666  150.611  0.980720
  7137.007  7137.000  0.500  5.013264  151.614  150.602  1.001376
  7140.026  7140.010  0.500  5.107467  151.619  150.756  0.912287
  7143.216  7143.200  0.500  5.151452  151.614  150.892  0.873811
  7146.572  7146.560  0.500  5.157318  151.602  151.006  0.869359
  7150.087  7150.080  0.500  5.339771  151.589  151.122  0.724928
  7153.786  7153.780  0.500  5.409511  151.544  151.24  0.676621
  7157.658  7157.650  0.500  5.370498  151.53  151.358  0.704088
  7161.714  7161.700  0.500  5.353361  151.466  151.458  0.716731
  7165.922  7165.910  0.500  5.299567  151.332  151.566  0.756883
  7170.299  7170.290  0.500  5.258001  151.265  151.644  0.789415
  7174.858  7174.850  0.500  5.140362  151.187  151.762  0.888655
  7179.592  7179.580  0.500  4.991126  151.146  151.937  1.032870
  7184.496  7184.480  0.500  5.001977  151.484  152.477  1.025353
  7189.557  7189.550  0.500  5.141179  151.51  152.756  0.893740
  7194.805  7194.790  0.500  5.286863  151.286  152.751  0.772556
  7200.195  7200.210  0.500  5.162861  151.228  152.919  0.875504
  7205.784  7205.790  0.500  4.935827  151.149  153.103  1.099973
  7211.555  7211.550  0.500  5.007307  151.047  153.249  1.025067
  7217.487  7217.480  0.500  5.504936  150.925  153.343  0.623593
  7223.588  7223.580  0.500  5.589847  150.811  153.489  0.573373
  7229.858  7229.850  0.500  5.185611  150.852  153.781  0.860640
  7236.290  7236.290  0.500  4.838210  150.743  153.955  1.219509
  7242.908  7242.900  0.500  4.830392  150.636  154.106  1.230290
  7249.694  7249.690  0.500  4.952327  150.545  154.27  1.090220
  7256.659  7256.650  0.500  4.893157  150.629  154.631  1.159380
  7263.787  7263.770  0.500  4.952591  144.878  149.059  1.053115
  7271.081  7271.070  0.500  5.044912  150.825  155.492  1.001683
  7278.562  7278.550  0.500  5.152750  150.832  155.821  0.901185
  7286.205  7286.190  0.500  5.252754  150.4  155.692  0.814752
  7294.009  7294.000  0.500  5.163351  150.558  156.168  0.893672
  7302.003  7301.990  0.500  4.895006  148.088  153.908  1.151829
  7310.163  7310.150  0.500  4.786390  150.405  156.663  1.306962
  7318.483  7318.470  0.500  4.782183  150.284  156.906  1.314507
  7326.974  7326.970  0.500  4.771760  150.164  157.093  1.329862
  7335.654  7335.650  0.500  4.726427  150.063  157.313  1.393491
  7344.495  7344.490  0.500  4.751237  149.872  157.477  1.360756
  7353.503  7353.500  0.500  4.908007  149.803  157.817  1.165822
  7362.703  7362.690  0.500  5.016509  149.641  158  1.047168
  7372.053  7372.050  0.500  4.981605  149.527  158.23  1.085941
  7381.581  7381.570  0.500  4.714052  149.319  158.387  1.420469
  7391.279  7391.270  0.500  4.606420  149.196  158.652  1.584540
  7401.167  7401.150  0.500  4.639497  149.066  158.916  1.535536
  7411.201  7411.190  0.500  4.636462  148.865  159.044  1.541438
  7421.415  7421.400  0.500  4.623082  148.721  159.341  1.565127
  7431.805  7431.790  0.500  4.582471  148.479  159.456  1.631173
  7442.366  7442.350  0.500  4.626139  148.255  159.583  1.562711
  7453.100  7453.080  0.500  4.686909  147.599  159.348  1.468411
  7463.995  7463.980  0.500  4.664772  147.918  160.114  1.508500
  7475.065  7475.050  0.500  4.574084  147.796  160.422  1.654877
  7486.303  7486.290  0.500  4.500970  147.556  160.527  1.781564
  7497.724  7497.710  0.500  4.443865  147.322  160.755  1.888941
  7509.307  7509.290  0.500  4.453581  147.108  160.973  1.873218
  7521.061  7521.050  0.500  4.434291  146.86  161.131  1.911578
  7532.994  7532.980  0.500  4.431682  146.595  161.281  1.918345
  7545.102  7545.080  0.500  4.412702  146.322  161.369  1.956176
  7557.368  7557.350  0.500  4.412263  146.062  161.576  1.959543
  7569.804  7569.790  0.500  4.415930  145.776  161.732  1.954262
  7582.419  7582.410  0.500  4.352756  145.468  161.828  2.082937
  7595.199  7595.190  0.500  4.314035  145.027  161.797  2.164752
  7608.152  7608.150  0.500  4.295775  144.171  161.346  2.198500
  7621.287  7621.280  0.500  4.268961  144.071  161.652  2.262537
  7634.586  7634.580  0.500  4.254993  144.041  162.099  2.300706
  7648.062  7648.050  0.500  4.216051  143.664  162.205  2.393632
  7661.716  7661.700  0.500  4.197662  143.86  162.898  2.448461
  7675.521  7675.510  0.500  4.196073  143.516  162.99  2.453750
  7689.508  7689.500  0.500  4.183981  143.22  163.156  2.486129
  7703.672  7703.660  0.500  4.152969  142.701  162.999  2.561972
  7718.003  7717.990  0.500  4.119522  142.262  163.041  2.649790
  7732.506  7732.490  0.500  4.094657  141.857  163.035  2.716408
  7747.173  7747.160  0.500  4.073292  141.477  163.091  2.776022
  7762.021  7762.000  0.500  4.051962  141.016  163.08  2.835680
  7777.044  7777.020  0.500  4.022037  140.497  162.968  2.919802
  7792.234  7792.200  0.500  3.999271  139.968  162.869  2.985232
  7807.600  7807.560  0.500  3.982199  139.434  162.72  3.033841
  7823.120  7823.090  0.500  3.964225  138.874  162.603  3.086641
  7838.801  7838.790  0.500  3.944599  138.281  162.388  3.143665
  7854.643  7854.660  0.500  3.921739  136.737  161.125  3.191351
  7870.730  7870.710  0.500  3.895083  137.001  161.894  3.293204
  7886.902  7886.920  0.500  3.868587  136.38  161.678  3.377100
  7903.284  7903.310  0.500  3.844524  135.753  161.443  3.454333
  7919.857  7919.870  0.500  3.821122  135.148  161.228  3.531417
  7936.575  7936.600  0.500  3.799167  134.289  160.706  3.598115
  7953.512  7953.500  0.500  3.780378  133.641  160.457  3.660667
  7964.837  7964.860  0.500  3.766459  133.123  160.188  3.705768