File: xdidata/Fe/Fe-K-Jacobsite.xdi
# XDI/1.0 BlueSky/1.5.3
# Beamline.name: 6BM
# Beamline.xray_source: NSLS-II three-pole wiggler
# Beamline.collimation: paraboloid mirror, 5 nm Rh on 30 nm Pt
# Beamline.focusing: not in use
# Beamline.harmonic_rejection: flat mirror, Si stripe, pitch = 7.0 mrad relative to beam
# Detector.i0: 10 cm N2
# Detector.i1: 25 cm N2
# Detector.i2: 25 cm N2
# Element.symbol: Fe
# Element.edge: K
# Facility.name: NSLS-II
# Facility.energy: 3.0
# Facility.current: 401.2
# Facility.mode: top-off
# Facility.gup: 301027
# Facility.saf: 304793
# Facility.cycle: 2020-1
# Mono.name: Si(111)
# Mono.d_spacing: 3.13532
# Mono.encoder_resolution: 0.0000050 deg/ct
# Mono.angle_offset: 16.0581 deg
# Mono.scan_mode: fixed exit
# Mono.scan_type: step
# Mono.direction: forward in energy
# Sample.name: MnFe2O4
# Sample.prep: Powder in polyethylene glycol pellet
# Sample.x_position: -122.297 mm
# Sample.y_position: 119.848 mm
# Scan.experimenters: Bruce Ravel
# Scan.edge_energy: 7112.0
# Scan.start_time: 2020-01-14T22:55:32
# Scan.end_time: 2020-01-14T23:33:53
# Scan.transient_id: 19547
# Scan.uid: 0759c084-5616-4f31-a998-a91a6b387149
# Scan.plot_hint: ln(I0/It)  --  ln($5/$6)
# Scan.sequence: merge of 2 scans
# Column.1: energy eV
# Column.2: requested_energy eV
# Column.3: measurement_time seconds
# Column.4: mutrans
# Column.5: i0
# Column.6: itrans
# Column.7: irefer
# /////
#  Jakobsberg Mine, Nordmark, Sweden
# -----
# energy   requested_energy   measurement_time   mutrans   i0   itrans   irefer
6912 6912 0.500000 1.870704 71.0917 10.9493 3.041177
6952.01 6952 0.500000 1.831241 70.379 11.2758 3.185957
6992.01 6992 0.500000 1.790771 69.822 11.6485 3.347519
7032.01 7032 0.500000 1.753190 69.2593 11.9971 3.502293
7072.01 7072 0.500000 1.715899 68.7142 12.355 3.653608
7088.01 7088 0.500000 1.702241 68.6239 12.5084 3.701237
7096 7096 0.500000 1.695879 68.6307 12.5894 3.709113
7102.08 7102.1 0.500000 1.692147 68.5356 12.619 3.679179
7102.48 7102.5 0.500000 1.692128 68.6107 12.6331 3.677835
7102.89 7102.9 0.500000 1.691952 68.6445 12.6416 3.676554
7103.29 7103.3 0.500000 1.691639 68.6424 12.6451 3.672106
7103.69 7103.7 0.500000 1.691620 68.7841 12.6715 3.674598
7104.09 7104.1 0.500000 1.691368 68.7588 12.67 3.667380
7104.49 7104.5 0.500000 1.691238 68.6833 12.6577 3.656254
7104.89 7104.9 0.500000 1.690955 68.7499 12.6736 3.652970
7105.29 7105.3 0.500000 1.690999 68.7901 12.6804 3.646000
7105.69 7105.7 0.500000 1.690857 68.8193 12.6876 3.638079
7106.09 7106.1 0.500000 1.690640 68.7956 12.686 3.625317
7106.49 7106.5 0.500000 1.690663 68.7451 12.6765 3.609719
7106.9 7106.9 0.500000 1.690595 68.8033 12.688 3.596342
7107.3 7107.3 0.500000 1.690408 68.7517 12.6809 3.575204
7107.7 7107.7 0.500000 1.690476 68.7573 12.6811 3.553738
7108.1 7108.1 0.500000 1.690473 68.7357 12.6771 3.524059
7108.5 7108.5 0.500000 1.690477 68.7388 12.6776 3.489735
7108.9 7108.9 0.500000 1.690624 68.7195 12.6722 3.442803
7109.3 7109.3 0.500000 1.690650 68.7264 12.673 3.382881
7109.7 7109.7 0.500000 1.690872 68.8548 12.694 3.301202
7110.1 7110.1 0.500000 1.691546 68.8551 12.6855 3.162611
7110.5 7110.5 0.500000 1.691972 68.8303 12.6755 2.936801
7110.9 7110.9 0.500000 1.692992 68.9894 12.6918 2.613108
7111.3 7111.3 0.500000 1.694726 68.9786 12.6679 2.250711
7111.7 7111.7 0.500000 1.697576 68.9052 12.6184 1.943418
7112.1 7112.1 0.500000 1.702659 68.9287 12.5592 1.721583
7112.49 7112.5 0.500000 1.710529 68.8669 12.4494 1.558666
7112.9 7112.9 0.500000 1.719785 68.8979 12.3397 1.430223
7113.3 7113.3 0.500000 1.726405 68.7915 12.2392 1.326120
7113.7 7113.7 0.500000 1.728168 68.7622 12.2128 1.245297
7114.1 7114.1 0.500000 1.724702 68.765 12.256 1.183830
7114.5 7114.5 0.500000 1.719402 68.7369 12.3153 1.137740
7114.9 7114.9 0.500000 1.715070 68.713 12.3651 1.104432
7115.3 7115.3 0.500000 1.713160 68.6751 12.3817 1.081665
7115.7 7115.7 0.500000 1.713205 68.7252 12.3902 1.068520
7116.1 7116.1 0.500000 1.714411 68.7495 12.3796 1.054128
7116.5 7116.5 0.500000 1.716060 68.7154 12.353 1.032181
7116.9 7116.9 0.500000 1.717858 68.6345 12.3164 0.994150
7117.3 7117.3 0.500000 1.720132 68.6133 12.2848 0.938575
7117.7 7117.7 0.500000 1.722811 68.5596 12.2424 0.866967
7118.1 7118.1 0.500000 1.725653 68.5289 12.2023 0.792308
7118.5 7118.5 0.500000 1.730048 68.4931 12.1422 0.713556
7118.9 7118.9 0.500000 1.736112 68.3931 12.0511 0.639552
7119.31 7119.3 0.500000 1.744459 68.356 11.9458 0.567193
7119.7 7119.7 0.500000 1.754922 68.2681 11.8067 0.501974
7120.1 7120.1 0.500000 1.768092 68.1585 11.6338 0.441306
7120.5 7120.5 0.500000 1.783738 68.0309 11.4318 0.388270
7120.9 7120.9 0.500000 1.803451 67.9242 11.1909 0.340544
7121.3 7121.3 0.500000 1.826213 67.8598 10.9282 0.301093
7121.7 7121.7 0.500000 1.850780 67.724 10.641 0.268266
7122.1 7122.1 0.500000 1.874951 67.6497 10.3738 0.241967
7122.5 7122.5 0.500000 1.897432 67.4208 10.1094 0.221438
7122.9 7122.9 0.500000 1.919784 67.4779 9.894362 0.202894
7123.3 7123.3 0.500000 1.941877 67.322 9.656838 0.186861
7123.7 7123.7 0.500000 1.964155 67.3562 9.448341 0.174222
7124.1 7124.1 0.500000 1.986588 67.2222 9.221159 0.162727
7124.5 7124.5 0.500000 2.010942 67.0559 8.976853 0.151157
7124.9 7124.9 0.500000 2.038171 66.99 8.725929 0.140859
7125.31 7125.3 0.500000 2.068501 66.8758 8.447908 0.130496
7125.71 7125.7 0.500000 2.099279 66.6811 8.168516 0.121688
7126.11 7126.1 0.500000 2.128537 66.5747 7.921006 0.113510
7126.51 7126.5 0.500000 2.153293 66.3852 7.706544 0.105777
7126.9 7126.9 0.500000 2.173648 66.1758 7.527979 0.098480
7127.31 7127.3 0.500000 2.190201 66.0037 7.384760 0.092900
7127.7 7127.7 0.500000 2.204122 65.8662 7.268168 0.086183
7128.11 7128.1 0.500000 2.217022 65.7203 7.158042 0.079657
7128.51 7128.5 0.500000 2.230904 65.5826 7.044379 0.073519
7128.9 7128.9 0.500000 2.247321 65.4811 6.919846 0.066828
7129.3 7129.3 0.500000 2.268613 65.3626 6.760250 0.061580
7129.7 7129.7 0.500000 2.294947 65.2098 6.570494 0.057511
7130.1 7130.1 0.500000 2.325356 65.0627 6.358588 0.053893
7130.5 7130.5 0.500000 2.355626 64.921 6.157857 0.049961
7130.9 7130.9 0.500000 2.382672 64.7366 5.976161 0.047668
7131.31 7131.3 0.500000 2.402960 64.5724 5.840561 0.047234
7131.7 7131.7 0.500000 2.415155 64.5199 5.765211 0.047509
7132.1 7132.1 0.500000 2.416648 64.4639 5.751478 0.050709
7132.5 7132.5 0.500000 2.409339 64.4483 5.792472 0.054080
7132.9 7132.9 0.500000 2.394421 64.4659 5.880679 0.058426
7133.3 7133.3 0.500000 2.375686 64.487 5.994117 0.062322
7133.69 7133.7 0.500000 2.354437 64.5169 6.125364 0.066173
7134.1 7134.1 0.500000 2.333679 64.5308 6.255043 0.070222
7134.5 7134.5 0.500000 2.314966 64.5707 6.377870 0.073688
7134.9 7134.9 0.500000 2.299932 64.6436 6.481860 0.079135
7135.31 7135.3 0.500000 2.288387 64.6975 6.562584 0.080563
7135.7 7135.7 0.500000 2.280127 64.883 6.635959 0.083190
7136.1 7136.1 0.500000 2.274522 64.9458 6.679608 0.085831
7136.5 7136.5 0.500000 2.271515 65.0267 6.707941 0.086671
7136.9 7136.9 0.500000 2.269816 65.1294 6.729903 0.086822
7137.3 7137.3 0.500000 2.269136 65.1973 6.741496 0.085739
7137.7 7137.7 0.500000 2.269170 65.211 6.742682 0.085606
7138.1 7138.1 0.500000 2.269203 65.2893 6.750561 0.083857
7138.5 7138.5 0.500000 2.268931 65.2935 6.752832 0.083034
7138.9 7138.9 0.500000 2.267753 65.2846 6.759866 0.081796
7139.3 7139.3 0.500000 2.265034 65.3057 6.780325 0.078902
7139.7 7139.7 0.500000 2.261273 65.3189 6.807209 0.078452
7140.1 7140.1 0.500000 2.255816 65.3334 6.845719 0.077847
7140.5 7140.5 0.500000 2.249251 65.342 6.892049 0.077550
7140.9 7140.9 0.500000 2.241706 65.3698 6.947315 0.076090
7141.3 7141.3 0.500000 2.233950 65.385 7.003039 0.077102
7141.7 7141.7 0.500000 2.227035 65.3668 7.049768 0.079071
7143.09 7143.08 0.710000 2.213906 92.9095 10.1524 0.114686
7147.58 7147.58 0.760000 2.206754 99.5831 10.9594 0.111150
7152.4 7152.39 0.810000 2.135617 106.375 12.5705 0.110360
7157.52 7157.51 0.860000 2.097281 112.998 13.8751 0.126155
7162.93 7162.93 0.910000 2.088731 119.433 14.7911 0.137460
7168.66 7168.65 0.960000 2.113083 125.531 15.1726 0.148962
7174.69 7174.68 1.010000 2.148733 131.61 15.3499 0.173212
7181.02 7181.01 1.060000 2.173421 137.819 15.6821 0.203577
7187.67 7187.65 1.110000 2.167291 144.037 16.4905 0.190731
7194.62 7194.6 1.160000 2.148449 150.348 17.5404 0.168475
7201.85 7201.84 1.210000 2.126229 157.259 18.7587 0.222177
7209.41 7209.4 1.260000 2.109489 163.543 19.8377 0.269070
7217.27 7217.26 1.310000 2.104509 170.199 20.7482 0.155898
7225.44 7225.42 1.360000 2.102524 175.822 21.4763 0.173774
7233.91 7233.89 1.410000 2.088653 182.379 22.5884 0.312670
7242.68 7242.66 1.460000 2.063968 188.29 23.9034 0.350364
7251.74 7251.74 1.510000 2.059525 194.221 24.7659 0.327034
7261.12 7261.12 1.560000 2.074012 199.367 25.0567 0.335617
7270.8 7270.8 1.610000 2.075609 206.616 25.9262 0.305504
7280.79 7280.79 1.660000 2.063244 212.26 26.9658 0.279507
7291.09 7291.09 1.710000 2.039724 218.53 28.4232 0.279220
7301.69 7301.69 1.760000 2.020681 220.783 29.2682 0.402679
7312.6 7312.6 1.810000 2.008830 230.434 30.9117 0.468016
7323.81 7323.81 1.860000 2.009183 236.196 31.6735 0.483334
7335.33 7335.32 1.910000 1.999850 242.08 32.7671 0.522266
7347.15 7347.14 1.960000 1.983388 248.101 34.1395 0.498951
7359.27 7359.27 2.010000 1.970283 254.18 35.4372 0.431004
7371.7 7371.7 2.060000 1.962322 259.077 36.4085 0.448264
7384.42 7384.43 2.110000 1.950325 264.347 37.5973 0.646161
7397.47 7397.47 2.160000 1.941169 269.115 38.6277 0.658009
7410.82 7410.82 2.210000 1.927960 274.434 39.9148 0.678708
7424.48 7424.47 2.260000 1.913239 279.415 41.242 0.721633
7438.42 7438.42 2.310000 1.898433 284.225 42.5779 0.742619
7452.69 7452.68 2.360000 1.888682 289.322 43.7661 0.698646
7467.25 7467.24 2.410000 1.873846 289.383 44.4297 0.742957
7482.11 7482.11 2.460000 1.863177 299.623 46.4953 0.862516
7497.28 7497.28 2.510000 1.851835 304.315 47.762 0.959223
7512.77 7512.76 2.560000 1.838321 310.182 49.3451 0.982509
7528.54 7528.54 2.610000 1.824679 315.105 50.8168 1.024462
7544.64 7544.63 2.660000 1.811022 319.361 52.2115 1.066552
7561.02 7561.02 2.710000 1.796623 323.816 53.7075 1.082174
7577.73 7577.72 2.760000 1.784477 327.63 55.0041 1.155507
7594.73 7594.72 2.810000 1.772398 330.829 56.2162 1.249472
7612.03 7612.03 2.860000 1.758330 332.365 57.2771 1.307264
7629.64 7629.64 2.910000 1.743952 337.071 58.9293 1.362042
7647.56 7647.56 2.960000 1.730363 339.477 60.1623 1.452844
7665.79 7665.78 3.010000 1.717197 341.475 61.3181 1.502524
7684.3 7684.3 3.060000 1.704460 343.673 62.5041 1.531069
7703.13 7703.13 3.110000 1.690854 346.53 63.8869 1.614757
7722.28 7722.27 3.160000 1.676519 347.918 65.069 1.710229
7741.72 7741.71 3.210000 1.662124 349.644 66.34 1.782378
7761.45 7761.45 3.260000 1.648568 349.424 67.203 1.846465
7781.51 7781.5 3.310000 1.634761 349.487 68.1497 1.932697
7801.86 7801.86 3.360000 1.620994 349.053 69.0085 1.998021
7822.53 7822.52 3.410000 1.606404 348.317 69.8752 2.057121
7843.49 7843.48 3.460000 1.591375 347.251 70.7164 2.125137
7854.08 7854.08 3.490000 1.584172 345.014 70.7685 2.149414