File: xdidata/Fe/Fe-K-Carpholite.xdi
# XDI/1.0 BlueSky/1.5.3
# Beamline.name: 6BM
# Beamline.xray_source: NSLS-II three-pole wiggler
# Beamline.collimation: paraboloid mirror, 5 nm Rh on 30 nm Pt
# Beamline.focusing: not in use
# Beamline.harmonic_rejection: flat mirror, Si stripe, pitch = 7.0 mrad relative to beam
# Detector.i0: 10 cm N2
# Detector.i1: 25 cm N2
# Detector.i2: 25 cm N2
# Element.symbol: Fe
# Element.edge: K
# Facility.name: NSLS-II
# Facility.energy: 3.0
# Facility.current: 400.8
# Facility.mode: top-off
# Facility.gup: 301027
# Facility.saf: 304793
# Facility.cycle: 2020-1
# Mono.name: Si(111)
# Mono.d_spacing: 3.13532
# Mono.encoder_resolution: 0.0000050 deg/ct
# Mono.angle_offset: 16.0581 deg
# Mono.scan_mode: fixed exit
# Mono.scan_type: step
# Mono.direction: forward in energy
# Sample.name: MnAl2Si2O6(OH)4
# Sample.prep: Powder in polyethylene glycol pellet
# Sample.x_position: -122.297 mm
# Sample.y_position: 119.848 mm
# Scan.experimenters: Bruce Ravel
# Scan.edge_energy: 7112.0
# Scan.start_time: 2020-01-15T00:12:55
# Scan.end_time: 2020-01-15T00:51:07
# Scan.transient_id: 19551
# Scan.uid: a91eaf3c-ea57-4025-bd6f-3b2d05122a4d
# Scan.plot_hint: ln(I0/It)  --  ln($5/$6)
# Scan.sequence: merge of 2 scans
# Column.1: energy eV
# Column.2: requested_energy eV
# Column.3: measurement_time seconds
# Column.4: mutrans
# Column.5: i0
# Column.6: itrans
# Column.7: irefer
# /////
#  Schlaggenwald, Bohemia, CZ
# -----
# energy   requested_energy   measurement_time   mutrans   i0   itrans   irefer
6912 6912 0.500000 3.238033 71.3014 2.797989 0.783005
6952.02 6952 0.500000 3.175262 70.6289 2.951101 0.839907
6992.01 6992 0.500000 3.113863 70.0906 3.114052 0.901296
7032.02 7032 0.500000 3.055948 69.5695 3.275215 0.964330
7072.01 7072 0.500000 2.998069 68.9921 3.441550 1.024889
7088.01 7088 0.500000 2.975510 68.8212 3.511360 1.046465
7096 7096 0.500000 2.964372 68.8096 3.550078 1.052179
7102.08 7102.1 0.500000 2.956371 68.7501 3.575538 1.048943
7102.48 7102.5 0.500000 2.955535 68.7956 3.580874 1.048594
7102.88 7102.9 0.500000 2.954916 68.757 3.581072 1.047697
7103.28 7103.3 0.500000 2.954452 68.8136 3.585685 1.048154
7103.69 7103.7 0.500000 2.953988 68.7526 3.584148 1.044596
7104.09 7104.1 0.500000 2.953450 68.7553 3.586233 1.043794
7104.49 7104.5 0.500000 2.952945 68.74 3.587267 1.042325
7104.89 7104.9 0.500000 2.952237 68.7725 3.591478 1.041994
7105.29 7105.3 0.500000 2.951793 68.7318 3.590951 1.038131
7105.69 7105.7 0.500000 2.951372 68.6812 3.589827 1.035844
7106.1 7106.1 0.500000 2.951065 68.6801 3.590873 1.032487
7106.49 7106.5 0.500000 2.950536 68.7078 3.594229 1.029279
7106.9 7106.9 0.500000 2.949935 68.6498 3.593346 1.024368
7107.3 7107.3 0.500000 2.949616 68.6442 3.594223 1.018905
7107.7 7107.7 0.500000 2.948965 68.6149 3.594990 1.012936
7108.1 7108.1 0.500000 2.948382 68.7297 3.603125 1.006221
7108.5 7108.5 0.500000 2.948105 68.7818 3.606850 0.998558
7108.9 7108.9 0.500000 2.947811 68.8878 3.613487 0.987662
7109.3 7109.3 0.500000 2.947106 68.8621 3.614675 0.970136
7109.7 7109.7 0.500000 2.947060 68.8888 3.616240 0.944991
7110.1 7110.1 0.500000 2.946719 68.7962 3.612614 0.907076
7110.5 7110.5 0.500000 2.946581 68.8059 3.613586 0.844355
7110.9 7110.9 0.500000 2.947051 68.814 3.612338 0.750335
7111.3 7111.3 0.500000 2.947497 68.742 3.606971 0.646268
7111.7 7111.7 0.500000 2.947649 68.6995 3.604190 0.558705
7112.1 7112.1 0.500000 2.947183 68.6858 3.605143 0.496204
7112.5 7112.5 0.500000 2.946574 68.6313 3.604469 0.453164
7112.9 7112.9 0.500000 2.945777 68.6389 3.607735 0.420484
7113.3 7113.3 0.500000 2.944921 68.5415 3.605660 0.394713
7113.7 7113.7 0.500000 2.944560 68.4707 3.603279 0.369761
7114.1 7114.1 0.500000 2.944053 68.4972 3.606536 0.350739
7114.5 7114.5 0.500000 2.943477 68.4616 3.606751 0.335382
7114.9 7114.9 0.500000 2.942755 68.4314 3.607747 0.324768
7115.3 7115.3 0.500000 2.942293 68.4509 3.610377 0.318033
7115.69 7115.7 0.500000 2.942258 68.368 3.606220 0.313511
7116.1 7116.1 0.500000 2.942403 68.4346 3.609170 0.309642
7116.5 7116.5 0.500000 2.942598 68.3829 3.605743 0.303995
7116.9 7116.9 0.500000 2.943307 68.3363 3.600698 0.293459
7117.3 7117.3 0.500000 2.944860 68.3226 3.594386 0.277240
7117.7 7117.7 0.500000 2.947021 68.2738 3.584093 0.255975
7118.1 7118.1 0.500000 2.950190 68.3053 3.574478 0.235030
7118.5 7118.5 0.500000 2.954784 68.2696 3.556203 0.212017
7118.9 7118.9 0.500000 2.960414 68.2349 3.534271 0.189126
7119.31 7119.3 0.500000 2.968310 68.1797 3.503686 0.168149
7119.7 7119.7 0.500000 2.977724 68.1353 3.468568 0.149551
7120.1 7120.1 0.500000 2.989698 68.1145 3.426236 0.132111
7120.5 7120.5 0.500000 3.003221 68.0646 3.377830 0.116262
7120.9 7120.9 0.500000 3.017032 68.0116 3.328911 0.102985
7121.3 7121.3 0.500000 3.029529 68.1623 3.294654 0.091986
7121.7 7121.7 0.500000 3.040408 68.1864 3.260602 0.083797
7122.1 7122.1 0.500000 3.049083 68.2264 3.234159 0.077391
7122.5 7122.5 0.500000 3.057276 68.1304 3.203444 0.071374
7122.9 7122.9 0.500000 3.064238 68.0206 3.176223 0.066540
7123.29 7123.3 0.500000 3.071786 67.9394 3.148674 0.063025
7123.7 7123.7 0.500000 3.079563 67.812 3.118248 0.059113
7124.1 7124.1 0.500000 3.087899 67.6398 3.084284 0.055629
7124.5 7124.5 0.500000 3.097031 67.5664 3.052778 0.052824
7124.91 7124.9 0.500000 3.106479 67.4695 3.019528 0.050589
7125.3 7125.3 0.500000 3.115207 67.268 2.984635 0.047441
7125.7 7125.7 0.500000 3.122402 67.1285 2.957202 0.045409
7126.09 7126.1 0.500000 3.127419 66.9716 2.935554 0.043596
7126.5 7126.5 0.500000 3.130489 66.8212 2.919863 0.040956
7126.9 7126.9 0.500000 3.132330 66.6103 2.905307 0.039450
7127.3 7127.3 0.500000 3.131866 66.3383 2.894729 0.037717
7127.7 7127.7 0.500000 3.130147 66.2027 2.893789 0.035380
7128.1 7128.1 0.500000 3.126206 66.0302 2.897621 0.033133
7128.5 7128.5 0.500000 3.121480 65.8396 2.902991 0.031750
7128.9 7128.9 0.500000 3.115912 65.7631 2.915808 0.028773
7129.29 7129.3 0.500000 3.110647 65.625 2.925001 0.027942
7129.7 7129.7 0.500000 3.105173 65.4515 2.933323 0.026488
7130.1 7130.1 0.500000 3.099889 65.3295 2.943489 0.025656
7130.5 7130.5 0.500000 3.094836 65.1918 2.952084 0.024253
7130.9 7130.9 0.500000 3.089200 64.9765 2.958928 0.024816
7131.3 7131.3 0.500000 3.083433 64.8769 2.971473 0.024903
7131.7 7131.7 0.500000 3.077114 64.8157 2.987490 0.025642
7132.1 7132.1 0.500000 3.071776 64.7518 3.000390 0.027269
7132.49 7132.5 0.500000 3.067127 64.7433 3.013990 0.029078
7132.91 7132.9 0.500000 3.062711 64.7425 3.027625 0.031429
7133.31 7133.3 0.500000 3.058935 64.7462 3.039220 0.032186
7133.71 7133.7 0.500000 3.055084 64.8037 3.053606 0.033807
7134.1 7134.1 0.500000 3.051692 64.8656 3.066806 0.036900
7134.5 7134.5 0.500000 3.048448 65.1336 3.089463 0.037873
7134.9 7134.9 0.500000 3.045547 65.2154 3.102333 0.038882
7135.3 7135.3 0.500000 3.043409 65.2773 3.111903 0.040417
7135.7 7135.7 0.500000 3.041829 65.3194 3.118834 0.040638
7136.1 7136.1 0.500000 3.039635 65.4481 3.131899 0.041581
7136.5 7136.5 0.500000 3.037355 65.4634 3.139728 0.041739
7136.9 7136.9 0.500000 3.034779 65.4961 3.149445 0.040833
7137.3 7137.3 0.500000 3.032800 65.5337 3.157504 0.041334
7137.69 7137.7 0.500000 3.030860 65.6162 3.167540 0.041494
7138.1 7138.1 0.500000 3.029546 65.6431 3.173032 0.041336
7138.5 7138.5 0.500000 3.028371 65.6498 3.177084 0.040014
7138.9 7138.9 0.500000 3.027687 65.7166 3.182467 0.039371
7139.3 7139.3 0.500000 3.026941 65.6759 3.182914 0.038314
7139.7 7139.7 0.500000 3.026058 65.717 3.187702 0.039092
7140.11 7140.1 0.500000 3.025724 65.699 3.187880 0.038083
7140.51 7140.5 0.500000 3.025105 65.7168 3.190731 0.036875
7140.91 7140.9 0.500000 3.024800 65.6674 3.189345 0.036467
7141.3 7141.3 0.500000 3.024504 65.6762 3.190672 0.037022
7141.7 7141.7 0.500000 3.023445 65.7077 3.195578 0.036832
7143.1 7143.08 0.710000 3.021040 93.2556 4.546254 0.052758
7147.59 7147.58 0.760000 3.009701 99.8165 4.921647 0.051665
7152.4 7152.39 0.810000 2.999743 106.519 5.304617 0.049323
7157.52 7157.51 0.860000 3.000160 113.13 5.631486 0.052172
7162.94 7162.93 0.910000 2.997341 119.449 5.962881 0.058098
7168.66 7168.65 0.960000 2.992084 125.503 6.298099 0.064424
7174.69 7174.68 1.010000 2.989734 131.573 6.618224 0.077774
7181.01 7181.01 1.060000 2.984303 137.629 6.960533 0.092379
7187.66 7187.65 1.110000 2.974950 144.171 7.359895 0.089279
7194.62 7194.6 1.160000 2.959345 150.873 7.823177 0.077395
7201.85 7201.84 1.210000 2.943890 157.342 8.285698 0.100684
7209.42 7209.4 1.260000 2.931979 163.718 8.724761 0.121561
7217.27 7217.26 1.310000 2.924685 169.786 9.114331 0.072818
7225.43 7225.42 1.360000 2.915871 175.529 9.506027 0.080314
7233.89 7233.89 1.410000 2.906385 182.043 9.952709 0.140763
7242.67 7242.66 1.460000 2.893311 187.805 10.403 0.155618
7251.75 7251.74 1.510000 2.879984 193.629 10.8696 0.147160
7261.12 7261.12 1.560000 2.869007 198.787 11.2822 0.154043
7270.8 7270.8 1.610000 2.857002 206.151 11.8415 0.143319
7280.78 7280.79 1.660000 2.841880 211.442 12.3304 0.132142
7291.09 7291.09 1.710000 2.828539 217.655 12.8632 0.129820
7301.68 7301.69 1.760000 2.814942 219.928 13.1755 0.185719
7312.59 7312.6 1.810000 2.800294 229.417 13.9467 0.215590
7323.8 7323.81 1.860000 2.786104 235.721 14.5347 0.226846
7335.32 7335.32 1.910000 2.771648 241.81 15.1273 0.245678
7347.14 7347.14 1.960000 2.757643 247.409 15.6958 0.233512
7359.27 7359.27 2.010000 2.742231 252.913 16.2942 0.203800
7371.7 7371.7 2.060000 2.726070 258.179 16.9046 0.213566
7384.44 7384.43 2.110000 2.710420 263.663 17.536 0.307478
7397.47 7397.47 2.160000 2.694531 268.939 18.1733 0.315074
7410.81 7410.82 2.210000 2.678508 274.227 18.8299 0.324874
7424.47 7424.47 2.260000 2.661614 279.505 19.5194 0.347323
7438.42 7438.42 2.310000 2.644704 284.519 20.2084 0.358605
7452.68 7452.68 2.360000 2.627895 289.727 20.927 0.340485
7467.24 7467.24 2.410000 2.611180 289.521 21.2646 0.361048
7482.12 7482.11 2.460000 2.593093 300.811 22.4972 0.424259
7497.28 7497.28 2.510000 2.575701 306.205 23.3024 0.472321
7512.77 7512.76 2.560000 2.557914 310.529 24.0555 0.487607
7528.54 7528.54 2.610000 2.539984 314.985 24.8423 0.507784
7544.64 7544.63 2.660000 2.521634 319.039 25.6278 0.529887
7561.02 7561.02 2.710000 2.503370 323.225 26.4426 0.539674
7577.73 7577.72 2.760000 2.484870 327.172 27.2654 0.580476
7594.72 7594.72 2.810000 2.466258 330.66 28.0735 0.629989
7612.03 7612.03 2.860000 2.447386 332.121 28.7348 0.663586
7629.65 7629.64 2.910000 2.428540 337.541 29.7594 0.695833
7647.57 7647.56 2.960000 2.409478 340.444 30.5931 0.745939
7665.79 7665.78 3.010000 2.390224 344.226 31.5342 0.780414
7684.3 7684.3 3.060000 2.370945 346.975 32.4049 0.799995
7703.13 7703.13 3.110000 2.351281 349.867 33.3238 0.850981
7722.27 7722.27 3.160000 2.331716 351.696 34.1598 0.906216
7741.72 7741.71 3.210000 2.312012 354.503 35.1176 0.952771
7761.45 7761.45 3.260000 2.292123 354.938 35.867 0.995345
7781.51 7781.5 3.310000 2.271996 355.398 36.6437 1.048496
7801.86 7801.86 3.360000 2.251184 355.433 37.4178 1.094223
7822.52 7822.52 3.410000 2.230482 354.715 38.1235 1.134564
7843.48 7843.48 3.460000 2.209688 354.728 38.926 1.181449
7854.08 7854.08 3.490000 2.199232 353.17 39.1623 1.202581