File: xdidata/Fe/Fe-Lepidocrocite.xdi
# XDI/1.0 BlueSky/1.10.0 BMM/2023-1.0-py310-tiled
# Beamline.name: BMM (06BM) -- Beamline for Materials Measurement (NIST)
# Beamline.xray_source: NSLS-II three-pole wiggler
# Beamline.collimation: paraboloid mirror, 5 nm Rh on 30 nm Pt
# Beamline.focusing: not in use
# Beamline.harmonic_rejection: flat mirror, Si stripe, pitch = 7.0 mrad relative to beam
# Beamline.software: Bluesky 1.10.0, Ophyd 1.7.0, DataBroker 2.0.0b13, Python 3.10.8, 2023-1.0-py310-tiled
# Detector.I0: 10 cm N2
# Detector.I1: 25 cm N2
# Detector.I2: 25 cm N2
# Element.symbol: Fe
# Element.edge: K
# Element.reference: Fe
# Element.reference_material: Fe foil
# Facility.name: NSLS-II
# Facility.energy: 3.0
# Facility.current: 400.0
# Facility.mode: top-off
# Facility.GUP: 123456
# Facility.SAF: 301027
# Facility.cycle: 2023-2
# Mono.name: Si(111)
# Mono.d_spacing: 3.13519
# Mono.encoder_resolution: 0.0000050 deg/ct
# Mono.angle_offset: 16.0754 deg
# Mono.scan_mode: pseudo channel cut
# Mono.scan_type: step
# Mono.direction: forward in energy
# Sample.name: gamma-FeOOH
# Sample.prep: powder on tape
# Sample.x: 116.329 mm
# Sample.y: 114.126 mm
# Sample.SDD_position: 205.000 mm
# Scan.experimenters: Bruce Ravel
# Scan.edge_energy: 7112.0
# Scan.start_time: 2023-05-05T17:04:08
# Scan.end_time: 2023-05-05T17:12:16
# Scan.transient_id: 74506
# Scan.uid: a42ce525-1b10-4fb5-9dc1-11dc8e8f5189
# Scan.plot_hint: ln(I0/It)  --  ln($5/$6)
# Column.1: energy eV
# Column.2: requested_energy eV
# Column.3: measurement_time seconds
# Column.4: xmu
# Column.5: I0 nA
# Column.6: It nA
# Column.7: Ir nA
# ///////////
# Welcome to BMM
# -----------
# energy  requested_energy  measurement_time  xmu  I0  It  Ir
  6911.997  6912.000  0.500  1.659787  153.862  29.2614  5.491544
  6942.031  6942.000  0.500  1.630425  153.749  30.1112  5.771361
  6972.006  6972.000  0.500  1.601054  153.791  31.0171  6.070640
  7002.013  7002.000  0.500  1.572293  153.812  31.9266  6.376202
  7032.012  7032.000  0.500  1.544346  153.94  32.8588  6.691699
  7062.008  7062.000  0.500  1.516307  153.01  33.5889  6.962148
  7083.978  7084.000  0.500  1.496901  153.437  34.3427  7.181750
  7089.979  7090.000  0.500  1.491790  153.552  34.5446  7.227242
  7095.965  7096.000  0.500  1.486412  153.526  34.7249  7.248867
  7101.997  7102.000  0.500  1.481890  153.423  34.8588  7.213953
  7102.884  7102.900  0.500  1.480837  153.388  34.8877  7.201230
  7103.783  7103.800  0.500  1.480374  153.36  34.8975  7.179081
  7104.681  7104.700  0.500  1.479500  153.347  34.9251  7.156487
  7105.587  7105.600  0.500  1.479075  153.315  34.9325  7.119272
  7106.490  7106.500  0.500  1.478507  153.289  34.9464  7.072771
  7107.387  7107.400  0.500  1.477667  153.266  34.9705  7.008546
  7108.284  7108.300  0.500  1.477060  153.243  34.9866  6.904543
  7109.191  7109.200  0.500  1.476634  153.22  34.9962  6.729766
  7110.097  7110.100  0.500  1.476227  153.179  35.0012  6.345638
  7110.993  7111.000  0.500  1.476161  153.098  34.9849  5.337494
  7111.891  7111.900  0.500  1.477331  152.982  34.9176  3.848494
  7112.790  7112.800  0.500  1.481376  152.937  34.7662  3.012485
  7113.693  7113.700  0.500  1.482307  152.863  34.7173  2.569595
  7114.603  7114.600  0.500  1.481923  152.81  34.7185  2.263292
  7115.498  7115.500  0.500  1.479804  152.834  34.7975  2.123742
  7116.393  7116.400  0.500  1.480438  152.779  34.7631  2.057101
  7117.299  7117.300  0.500  1.481669  152.745  34.7125  1.914583
  7118.201  7118.200  0.500  1.483209  152.707  34.6504  1.608921
  7119.104  7119.100  0.500  1.485248  152.664  34.5701  1.270047
  7120.000  7120.000  0.500  1.489629  152.641  34.4139  0.991335
  7120.894  7120.900  0.500  1.498930  152.6  34.086  0.754831
  7121.799  7121.800  0.500  1.515533  152.507  33.5044  0.592214
  7122.700  7122.700  0.500  1.542669  152.492  32.6043  0.484886
  7123.604  7123.600  0.500  1.574376  152.422  31.5722  0.410006
  7124.503  7124.500  0.500  1.602848  152.375  30.6765  0.357428
  7125.397  7125.400  0.500  1.636697  152.32  29.6448  0.313811
  7126.299  7126.300  0.500  1.680010  152.275  28.3799  0.273771
  7127.201  7127.200  0.500  1.736866  152.178  26.7941  0.232546
  7128.099  7128.100  0.500  1.802226  152.144  25.0934  0.191355
  7129.000  7129.000  0.500  1.857023  152.054  23.7413  0.155935
  7129.895  7129.900  0.500  1.889058  152.005  22.9854  0.130903
  7130.802  7130.800  0.500  1.905340  151.89  22.5969  0.118364
  7131.706  7131.700  0.500  1.911481  151.803  22.4458  0.119907
  7132.603  7132.600  0.500  1.903085  151.803  22.6351  0.133818
  7133.496  7133.500  0.500  1.885291  151.782  23.0382  0.155043
  7134.398  7134.400  0.500  1.868268  151.758  23.43  0.176834
  7135.303  7135.300  0.500  1.856499  151.754  23.7068  0.193363
  7136.203  7136.200  0.500  1.847332  152.126  23.9838  0.203802
  7137.002  7137.000  0.500  1.839817  152.137  24.1664  0.207488
  7140.026  7140.010  0.500  1.803386  152.112  25.0589  0.191975
  7143.218  7143.200  0.500  1.770486  152.118  25.8981  0.194027
  7146.585  7146.560  0.500  1.753603  152.111  26.3378  0.191611
  7150.070  7150.080  0.500  1.724345  152.077  27.1137  0.164808
  7153.775  7153.780  0.500  1.685726  152.045  28.1754  0.161459
  7157.652  7157.650  0.500  1.666772  151.961  28.6988  0.171576
  7161.709  7161.700  0.500  1.660718  151.92  28.8652  0.175658
  7165.915  7165.910  0.500  1.667331  151.807  28.6537  0.183976
  7170.294  7170.290  0.500  1.688904  151.715  28.0252  0.187760
  7174.851  7174.850  0.500  1.717204  151.601  27.2226  0.207122
  7179.585  7179.580  0.500  1.728408  151.548  26.9099  0.235840
  7184.483  7184.480  0.500  1.723430  151.467  27.0297  0.231368
  7189.557  7189.550  0.500  1.709689  151.356  27.3836  0.202211
  7194.803  7194.790  0.500  1.695064  151.163  27.7516  0.179138
  7200.217  7200.210  0.500  1.685802  151.085  27.9954  0.207763
  7205.797  7205.790  0.500  1.677870  150.957  28.1944  0.262481
  7211.555  7211.550  0.500  1.670259  150.818  28.3837  0.235994
  7217.491  7217.480  0.500  1.663119  150.669  28.5589  0.144083
  7223.588  7223.580  0.500  1.655329  150.502  28.7502  0.138913
  7229.860  7229.850  0.500  1.643825  150.565  29.095  0.212658
  7236.308  7236.290  0.500  1.629699  150.404  29.4774  0.300634
  7242.910  7242.900  0.500  1.624748  150.299  29.6032  0.298658
  7249.701  7249.690  0.500  1.627873  150.075  29.4667  0.264466
  7256.666  7256.650  0.500  1.630072  150.054  29.3978  0.280740
  7263.789  7263.770  0.500  1.630404  136.033  26.642  0.237996
  7271.085  7271.070  0.500  1.627743  150.229  29.5008  0.239008
  7278.564  7278.550  0.500  1.618273  150.223  29.7803  0.217362
  7286.205  7286.190  0.500  1.601043  149.815  30.2156  0.198859
  7294.012  7294.000  0.500  1.585217  149.852  30.7052  0.225496
  7302.006  7301.990  0.500  1.575142  148.32  30.699  0.293228
  7310.166  7310.150  0.500  1.571290  149.676  31.0991  0.328367
  7318.483  7318.470  0.500  1.569260  149.484  31.1224  0.329634
  7326.981  7326.970  0.500  1.561861  149.332  31.3217  0.335038
  7335.665  7335.650  0.500  1.552379  149.149  31.5813  0.354041
  7344.504  7344.490  0.500  1.541169  148.922  31.8888  0.345251
  7353.510  7353.500  0.500  1.532491  148.782  32.1366  0.296767
  7362.703  7362.690  0.500  1.525762  148.503  32.2928  0.267992
  7372.058  7372.050  0.500  1.516454  148.354  32.5621  0.282255
  7381.581  7381.570  0.500  1.509942  148.115  32.7219  0.372764
  7391.277  7391.270  0.500  1.504091  147.945  32.8763  0.411750
  7401.157  7401.150  0.500  1.495213  147.682  33.1104  0.401429
  7411.198  7411.190  0.500  1.484415  147.422  33.4109  0.405366
  7421.408  7421.400  0.500  1.472478  147.163  33.7527  0.416015
  7431.798  7431.790  0.500  1.461524  146.941  34.073  0.435743
  7442.359  7442.350  0.500  1.452097  147.131  34.4402  0.419578
  7453.088  7453.080  0.500  1.443077  145.656  34.4039  0.395158
  7463.985  7463.980  0.500  1.435780  146.674  34.8982  0.410368
  7475.055  7475.050  0.500  1.428802  146.471  35.0937  0.452135
  7486.305  7486.290  0.500  1.419298  146.116  35.3431  0.489388
  7497.724  7497.710  0.500  1.408405  145.799  35.6527  0.521067
  7509.309  7509.290  0.500  1.398023  145.419  35.9309  0.519234
  7521.061  7521.050  0.500  1.387439  145.04  36.2185  0.533596
  7532.999  7532.980  0.500  1.377589  144.64  36.4761  0.537610
  7545.098  7545.080  0.500  1.368800  144.22  36.6914  0.550833
  7557.368  7557.350  0.500  1.359303  143.828  36.9408  0.552935
  7569.792  7569.790  0.500  1.349720  143.355  37.1739  0.555059
  7582.424  7582.410  0.500  1.338847  142.904  37.4619  0.596395
  7595.212  7595.190  0.500  1.327895  142.334  37.7235  0.621945
  7608.172  7608.150  0.500  1.317419  141.293  37.8418  0.635675
  7621.294  7621.280  0.500  1.307499  141.123  38.1732  0.657036
  7634.596  7634.580  0.500  1.297535  140.868  38.4857  0.671693
  7648.072  7648.050  0.500  1.288197  140.382  38.7128  0.701846
  7661.713  7661.700  0.500  1.278593  139.823  38.9307  0.717064
  7675.526  7675.510  0.500  1.267763  139.281  39.202  0.722327
  7689.511  7689.500  0.500  1.256603  138.925  39.5407  0.737154
  7703.672  7703.660  0.500  1.245812  138.159  39.7494  0.763906
  7718.003  7717.990  0.500  1.235223  137.544  39.9937  0.793938
  7732.506  7732.490  0.500  1.224614  136.99  40.2575  0.818149
  7747.180  7747.160  0.500  1.214078  136.524  40.5454  0.840267
  7762.021  7762.000  0.500  1.203737  135.87  40.7707  0.863296
  7777.024  7777.020  0.500  1.193096  135.237  41.0147  0.893324
  7792.206  7792.200  0.500  1.182346  134.632  41.2726  0.918190
  7807.558  7807.560  0.500  1.171582  134.017  41.5287  0.938583
  7823.094  7823.090  0.500  1.160551  133.386  41.7918  0.960749
  7838.796  7838.790  0.500  1.149828  132.438  41.9419  0.982130
  7854.669  7854.660  0.500  1.138969  131.134  41.9824  1.004815
  7870.725  7870.710  0.500  1.128619  131.371  42.496  1.043286
  7886.931  7886.920  0.500  1.117496  130.714  42.7564  1.076581
  7903.329  7903.310  0.500  1.106632  129.953  42.9715  1.107137
  7919.884  7919.870  0.500  1.096042  129.23  43.1875  1.137364
  7936.623  7936.600  0.500  1.084944  128.271  43.3455  1.164861
  7953.525  7953.500  0.500  1.073748  127.63  43.6144  1.193008
  7964.840  7964.860  0.500  1.066765  127.037  43.7158  1.211474