File: xdidata/Fe/Fe-Magnetite.xdi
# XDI/1.0 BlueSky/1.10.0 BMM/2023-1.0-py310-tiled
# Beamline.name: BMM (06BM) -- Beamline for Materials Measurement (NIST)
# Beamline.xray_source: NSLS-II three-pole wiggler
# Beamline.collimation: paraboloid mirror, 5 nm Rh on 30 nm Pt
# Beamline.focusing: not in use
# Beamline.harmonic_rejection: flat mirror, Si stripe, pitch = 7.0 mrad relative to beam
# Beamline.software: Bluesky 1.10.0, Ophyd 1.7.0, DataBroker 2.0.0b13, Python 3.10.8, 2023-1.0-py310-tiled
# Detector.I0: 10 cm N2
# Detector.I1: 25 cm N2
# Detector.I2: 25 cm N2
# Element.symbol: Fe
# Element.edge: K
# Element.reference: Fe
# Element.reference_material: Fe foil
# Facility.name: NSLS-II
# Facility.energy: 3.0
# Facility.current: 400.0
# Facility.mode: top-off
# Facility.GUP: 123456
# Facility.SAF: 301027
# Facility.cycle: 2023-2
# Mono.name: Si(111)
# Mono.d_spacing: 3.13519
# Mono.encoder_resolution: 0.0000050 deg/ct
# Mono.angle_offset: 16.0754 deg
# Mono.scan_mode: pseudo channel cut
# Mono.scan_type: step
# Mono.direction: forward in energy
# Sample.name: Fe3O4
# Sample.prep: powder on tape
# Sample.x: 116.329 mm
# Sample.y: 114.126 mm
# Sample.SDD_position: 205.000 mm
# Scan.experimenters: Bruce Ravel
# Scan.edge_energy: 7112.0
# Scan.start_time: 2023-05-05T17:30:42
# Scan.end_time: 2023-05-05T17:38:36
# Scan.transient_id: 74521
# Scan.uid: 27664e0f-6faa-46b6-91c9-850807772a93
# Scan.plot_hint: ln(I0/It)  --  ln($5/$6)
# Column.1: energy eV
# Column.2: requested_energy eV
# Column.3: measurement_time seconds
# Column.4: xmu
# Column.5: I0 nA
# Column.6: It nA
# Column.7: Ir nA
# ///////////
# Welcome to BMM
# -----------
# energy  requested_energy  measurement_time  xmu  I0  It  Ir
  6912.007  6912.000  0.500  2.208323  153.451  16.8619  3.165042
  6942.013  6942.000  0.500  2.173438  153.272  17.4401  3.343732
  6972.012  6972.000  0.500  2.137825  153.262  18.0712  3.536995
  7002.009  7002.000  0.500  2.103791  153.121  18.6797  3.731888
  7032.016  7032.000  0.500  2.069732  152.954  19.3058  3.931790
  7062.014  7062.000  0.500  2.037937  152.041  19.8105  4.106692
  7083.991  7084.000  0.500  2.017082  152.276  20.2593  4.238010
  7089.994  7090.000  0.500  2.012740  152.386  20.3622  4.260902
  7096.191  7096.000  0.500  2.009227  152.317  20.4246  4.263721
  7101.999  7102.000  0.500  2.008474  152.252  20.4312  4.228573
  7102.889  7102.900  0.500  2.008914  152.247  20.4216  4.215927
  7103.787  7103.800  0.500  2.008928  152.207  20.4158  4.200818
  7104.688  7104.700  0.500  2.009766  152.688  20.4632  4.193410
  7105.587  7105.600  0.500  2.010622  152.684  20.4453  4.167295
  7106.492  7106.500  0.500  2.011913  152.647  20.4139  4.131697
  7107.387  7107.400  0.500  2.013591  152.609  20.3746  4.083859
  7108.287  7108.300  0.500  2.016159  152.569  20.317  4.010451
  7109.193  7109.200  0.500  2.019773  152.551  20.2413  3.894010
  7110.093  7110.100  0.500  2.025646  152.487  20.1143  3.654902
  7110.997  7111.000  0.500  2.038343  152.43  19.8531  3.044695
  7111.889  7111.900  0.500  2.066136  152.332  19.2966  2.145587
  7112.788  7112.800  0.500  2.126792  152.239  18.1498  1.580455
  7113.697  7113.700  0.500  2.183560  152.185  17.1421  1.270859
  7114.596  7114.600  0.500  2.163824  152.137  17.4783  1.140979
  7115.498  7115.500  0.500  2.143897  152.143  17.8308  1.088482
  7116.391  7116.400  0.500  2.145321  152.089  17.799  1.053606
  7117.297  7117.300  0.500  2.171112  152.062  17.3427  0.958685
  7118.201  7118.200  0.500  2.222537  152.009  16.4677  0.767818
  7119.099  7119.100  0.500  2.304998  151.954  15.1587  0.561267
  7119.998  7120.000  0.500  2.418269  151.918  13.5322  0.393093
  7120.894  7120.900  0.500  2.546279  151.823  11.8988  0.265435
  7121.795  7121.800  0.500  2.655184  151.827  10.6713  0.189388
  7122.702  7122.700  0.500  2.758690  151.785  9.619332  0.143465
  7123.600  7123.600  0.500  2.867532  151.737  8.624582  0.112019
  7124.497  7124.500  0.500  2.967755  151.69  7.799668  0.091040
  7125.401  7125.400  0.500  3.050700  151.625  7.175766  0.075928
  7126.297  7126.300  0.500  3.110427  151.562  6.756933  0.065105
  7127.199  7127.200  0.500  3.168051  151.496  6.375797  0.055391
  7128.102  7128.100  0.500  3.236036  151.431  5.954177  0.045463
  7128.994  7129.000  0.500  3.305801  151.359  5.550309  0.036659
  7129.899  7129.900  0.500  3.352955  151.273  5.291666  0.030255
  7130.800  7130.800  0.500  3.360735  151.193  5.247869  0.027614
  7131.701  7131.700  0.500  3.347698  151.116  5.314042  0.028283
  7132.601  7132.600  0.500  3.330218  151.086  5.406649  0.031973
  7133.496  7133.500  0.500  3.305640  151.086  5.541183  0.037251
  7134.400  7134.400  0.500  3.277248  151.054  5.699551  0.042996
  7135.305  7135.300  0.500  3.252709  151.037  5.840514  0.047641
  7136.201  7136.200  0.500  3.234279  150.95  5.945706  0.050341
  7136.998  7137.000  0.500  3.223261  150.996  6.013416  0.051536
  7140.023  7140.010  0.500  3.176244  151.015  6.303673  0.048275
  7143.220  7143.200  0.500  3.150818  150.928  6.462300  0.048387
  7146.578  7146.560  0.500  3.143389  150.985  6.512926  0.047280
  7150.093  7150.080  0.500  3.078902  150.969  6.946049  0.042193
  7153.792  7153.780  0.500  3.035157  150.946  7.255553  0.041522
  7157.656  7157.650  0.500  3.001020  150.885  7.504469  0.044855
  7161.716  7161.700  0.500  2.992543  150.805  7.564345  0.045903
  7165.924  7165.910  0.500  3.006722  150.697  7.452495  0.047769
  7170.299  7170.290  0.500  3.036728  150.598  7.227446  0.048315
  7174.864  7174.850  0.500  3.076551  150.47  6.939398  0.052803
  7179.589  7179.580  0.500  3.104128  150.397  6.747362  0.058975
  7184.496  7184.480  0.500  3.111073  150.915  6.723758  0.057535
  7189.561  7189.550  0.500  3.096439  150.871  6.820874  0.050311
  7194.798  7194.790  0.500  3.073750  150.67  6.968096  0.044984
  7200.226  7200.210  0.500  3.044420  150.556  7.170092  0.052979
  7205.806  7205.790  0.500  3.017123  150.435  7.362562  0.068167
  7211.557  7211.550  0.500  3.007321  150.268  7.426820  0.061735
  7217.489  7217.480  0.500  3.012141  150.119  7.383819  0.037275
  7223.586  7223.580  0.500  3.021900  149.932  7.302983  0.035176
  7229.867  7229.850  0.500  3.017813  150.003  7.336376  0.053540
  7236.308  7236.290  0.500  3.000068  149.863  7.460755  0.075870
  7242.912  7242.900  0.500  2.971813  149.749  7.668682  0.077131
  7249.703  7249.690  0.500  2.956494  149.497  7.773963  0.069705
  7256.664  7256.650  0.500  2.965545  149.465  7.702286  0.073304
  7263.791  7263.770  0.500  2.980216  136.321  6.922626  0.061737
  7271.081  7271.070  0.500  2.979144  149.617  7.605972  0.061387
  7278.566  7278.550  0.500  2.970128  149.614  7.674701  0.055851
  7286.200  7286.190  0.500  2.954384  149.171  7.773421  0.051279
  7294.009  7294.000  0.500  2.930647  149.199  7.961627  0.058132
  7302.003  7301.990  0.500  2.914353  147.519  8.001282  0.076217
  7310.168  7310.150  0.500  2.898053  149.003  8.214580  0.086369
  7318.488  7318.470  0.500  2.894042  148.825  8.237747  0.086847
  7326.981  7326.970  0.500  2.895359  148.661  8.217847  0.087499
  7335.658  7335.650  0.500  2.888636  148.463  8.262289  0.092139
  7344.502  7344.490  0.500  2.874788  148.212  8.363314  0.090106
  7353.510  7353.500  0.500  2.858386  148.007  8.489898  0.077990
  7362.703  7362.690  0.500  2.846524  147.839  8.581425  0.071016
  7372.060  7372.050  0.500  2.838373  147.631  8.639500  0.074767
  7381.581  7381.570  0.500  2.826585  147.385  8.727375  0.098999
  7391.279  7391.270  0.500  2.816374  147.151  8.802906  0.109733
  7401.160  7401.150  0.500  2.807942  146.913  8.863116  0.107114
  7411.198  7411.190  0.500  2.796114  146.669  8.953669  0.108359
  7421.408  7421.400  0.500  2.782131  146.373  9.061447  0.111223
  7431.802  7431.790  0.500  2.768769  146.102  9.166294  0.116619
  7442.354  7442.350  0.500  2.755857  145.734  9.262060  0.112487
  7453.093  7453.080  0.500  2.747205  144.358  9.254329  0.105923
  7463.992  7463.980  0.500  2.734934  145.213  9.424073  0.110449
  7475.055  7475.050  0.500  2.721224  144.985  9.539186  0.122382
  7486.310  7486.290  0.500  2.710063  144.617  9.621751  0.132692
  7497.729  7497.710  0.500  2.697259  144.263  9.721892  0.141542
  7509.309  7509.290  0.500  2.686186  143.878  9.803886  0.141215
  7521.081  7521.050  0.500  2.673523  143.505  9.903108  0.145176
  7532.980  7532.980  0.500  2.661296  143.149  10  0.146734
  7545.076  7545.080  0.500  2.647990  142.752  10.1059  0.151122
  7557.343  7557.350  0.500  2.634062  142.346  10.2185  0.152351
  7569.779  7569.790  0.500  2.621759  141.994  10.3194  0.153444
  7582.417  7582.410  0.500  2.609251  141.556  10.4171  0.165284
  7595.185  7595.190  0.500  2.597252  141.001  10.5015  0.172637
  7608.147  7608.150  0.500  2.585353  140.242  10.57  0.177005
  7621.299  7621.280  0.500  2.572011  140.083  10.6998  0.183613
  7634.576  7634.580  0.500  2.557932  139.934  10.84  0.188431
  7648.060  7648.050  0.500  2.544151  139.453  10.9526  0.198007
  7661.723  7661.700  0.500  2.530602  139.021  11.0676  0.203146
  7675.496  7675.510  0.500  2.517877  138.472  11.1651  0.204826
  7689.518  7689.500  0.500  2.506007  138.147  11.2719  0.209206
  7703.655  7703.660  0.500  2.493128  137.399  11.3562  0.217329
  7717.977  7717.990  0.500  2.479182  136.869  11.4712  0.226880
  7732.511  7732.490  0.500  2.465659  136.302  11.5792  0.234276
  7747.145  7747.160  0.500  2.451831  135.815  11.6985  0.241716
  7761.987  7762.000  0.500  2.438081  135.188  11.8058  0.249039
  7777.031  7777.020  0.500  2.424518  134.644  11.9188  0.258484
  7792.226  7792.200  0.500  2.411230  134.044  12.0244  0.266648
  7807.543  7807.560  0.500  2.397508  133.416  12.1335  0.273210
  7823.086  7823.090  0.500  2.383507  132.758  12.2439  0.280410
  7838.812  7838.790  0.500  2.368934  131.877  12.3411  0.288050
  7854.648  7854.660  0.500  2.354805  130.549  12.3907  0.295625
  7870.706  7870.710  0.500  2.340951  130.771  12.5849  0.307952
  7886.894  7886.920  0.500  2.327361  130.127  12.6943  0.318590
  7903.295  7903.310  0.500  2.313536  129.36  12.7951  0.328685
  7919.852  7919.870  0.500  2.299680  128.63  12.9004  0.338412
  7936.578  7936.600  0.500  2.285829  127.703  12.9861  0.347902
  7953.477  7953.500  0.500  2.271994  127.051  13.0998  0.357159
  7964.846  7964.860  0.500  2.262818  126.417  13.1545  0.363419