File: xdidata/Fe/Fe-Neotocite.xdi
# XDI/1.0 BlueSky/1.10.0 BMM/2023-1.0-py310-tiled
# Beamline.name: BMM (06BM) -- Beamline for Materials Measurement (NIST)
# Beamline.xray_source: NSLS-II three-pole wiggler
# Beamline.collimation: paraboloid mirror, 5 nm Rh on 30 nm Pt
# Beamline.focusing: not in use
# Beamline.harmonic_rejection: flat mirror, Si stripe, pitch = 7.0 mrad relative to beam
# Beamline.software: Bluesky 1.10.0, Ophyd 1.7.0, DataBroker 2.0.0b13, Python 3.10.8, 2023-1.0-py310-tiled
# Detector.I0: 10 cm N2
# Detector.I1: 25 cm N2
# Detector.I2: 25 cm N2
# Element.symbol: Fe
# Element.edge: K
# Element.reference: Fe
# Element.reference_material: Fe foil
# Facility.name: NSLS-II
# Facility.energy: 3.0
# Facility.current: 400.4
# Facility.mode: top-off
# Facility.GUP: 123456
# Facility.SAF: 301027
# Facility.cycle: 2023-2
# Mono.name: Si(111)
# Mono.d_spacing: 3.13519
# Mono.encoder_resolution: 0.0000050 deg/ct
# Mono.angle_offset: 16.0754 deg
# Mono.scan_mode: pseudo channel cut
# Mono.scan_type: step
# Mono.direction: forward in energy
# Sample.name: (Mn,Fe,Mg)SiO3.H2O
# Sample.prep: PEG pellet
# Sample.x: 142.329 mm
# Sample.y: 114.126 mm
# Sample.SDD_position: 205.000 mm
# Scan.experimenters: Bruce Ravel
# Scan.edge_energy: 7112.0
# Scan.start_time: 2023-05-05T20:56:36
# Scan.end_time: 2023-05-05T21:04:49
# Scan.transient_id: 74636
# Scan.uid: 92be5678-a391-4e04-9d22-f8db80202ee6
# Scan.plot_hint: ln(I0/It)  --  ln($5/$6)
# Column.1: energy eV
# Column.2: requested_energy eV
# Column.3: measurement_time seconds
# Column.4: xmu
# Column.5: I0 nA
# Column.6: It nA
# Column.7: Ir nA
# ///////////
# courtesy Martin Stennett, University of Sheffield
# -----------
# energy  requested_energy  measurement_time  xmu  I0  It  Ir
  6912.005  6912.000  0.500  2.163444  155.08  17.8232  3.338636
  6942.029  6942.000  0.500  2.128829  154.858  18.4245  3.524946
  6972.014  6972.000  0.500  2.092326  154.782  19.1  3.730779
  7002.011  7002.000  0.500  2.059004  154.699  19.7367  3.933480
  7032.010  7032.000  0.500  2.024517  154.522  20.4058  4.146554
  7062.008  7062.000  0.500  1.990525  153.603  20.9858  4.341568
  7083.987  7084.000  0.500  1.966877  153.797  21.5152  4.490325
  7089.990  7090.000  0.500  1.960417  153.898  21.6688  4.524125
  7095.975  7096.000  0.500  1.954123  153.872  21.8019  4.542232
  7101.999  7102.000  0.500  1.948258  153.732  21.9102  4.525023
  7102.887  7102.900  0.500  1.947223  153.698  21.928  4.518191
  7103.785  7103.800  0.500  1.946371  153.681  21.9444  4.507359
  7104.692  7104.700  0.500  1.945510  153.648  21.9585  4.491351
  7105.584  7105.600  0.500  1.944802  153.612  21.9689  4.469754
  7106.490  7106.500  0.500  1.943717  153.582  21.9885  4.442905
  7107.389  7107.400  0.500  1.942717  153.558  22.0071  4.403695
  7108.287  7108.300  0.500  1.942061  153.528  22.0171  4.340136
  7109.193  7109.200  0.500  1.941367  153.501  22.0286  4.234399
  7110.091  7110.100  0.500  1.940392  153.459  22.044  4.007399
  7110.999  7111.000  0.500  1.939430  153.39  22.0553  3.400626
  7111.893  7111.900  0.500  1.939084  153.831  22.1264  2.473870
  7112.790  7112.800  0.500  1.938948  153.739  22.1161  1.931211
  7113.701  7113.700  0.500  1.939011  153.68  22.1063  1.644473
  7114.596  7114.600  0.500  1.938356  153.655  22.1171  1.447026
  7115.498  7115.500  0.500  1.936730  153.62  22.1481  1.352838
  7116.395  7116.400  0.500  1.935461  153.584  22.1711  1.311993
  7117.295  7117.300  0.500  1.934959  153.543  22.1763  1.229635
  7118.203  7118.200  0.500  1.935602  153.487  22.1539  1.038072
  7119.101  7119.100  0.500  1.935892  153.45  22.1421  0.823952
  7120.000  7120.000  0.500  1.937907  153.416  22.0926  0.645107
  7120.894  7120.900  0.500  1.940955  153.366  22.0182  0.493815
  7121.797  7121.800  0.500  1.945600  153.312  21.9085  0.391479
  7122.702  7122.700  0.500  1.951000  153.264  21.7837  0.326607
  7123.600  7123.600  0.500  1.958530  153.213  21.6131  0.282456
  7124.497  7124.500  0.500  1.966245  153.182  21.4426  0.251593
  7125.401  7125.400  0.500  1.974711  153.114  21.2525  0.226120
  7126.299  7126.300  0.500  1.983743  153.055  21.0532  0.204257
  7127.203  7127.200  0.500  1.994531  152.997  20.8194  0.181764
  7128.102  7128.100  0.500  2.006259  152.922  20.5666  0.158059
  7128.994  7129.000  0.500  2.016321  152.847  20.3507  0.135098
  7129.899  7129.900  0.500  2.023009  152.772  20.2051  0.115925
  7130.800  7130.800  0.500  2.025784  152.683  20.1375  0.106009
  7131.701  7131.700  0.500  2.026104  152.61  20.1213  0.107255
  7132.601  7132.600  0.500  2.023757  152.573  20.1638  0.118557
  7133.496  7133.500  0.500  2.018694  152.563  20.2648  0.135439
  7134.398  7134.400  0.500  2.013186  152.54  20.3736  0.152799
  7135.301  7135.300  0.500  2.008761  152.526  20.4621  0.166089
  7136.205  7136.200  0.500  2.005818  152.505  20.5195  0.174213
  7136.996  7137.000  0.500  2.004003  152.496  20.5556  0.176336
  7140.030  7140.010  0.500  1.996510  152.442  20.703  0.158864
  7143.184  7143.200  0.500  1.987072  152.43  20.8975  0.156452
  7146.561  7146.560  0.500  1.978665  152.43  21.074  0.154217
  7150.083  7150.080  0.500  1.967405  152.382  21.306  0.130087
  7153.786  7153.780  0.500  1.957760  152.356  21.5088  0.123569
  7157.652  7157.650  0.500  1.950384  152.293  21.6591  0.129599
  7161.703  7161.700  0.500  1.945302  152.219  21.7588  0.132442
  7165.922  7165.910  0.500  1.944706  152.088  21.753  0.139724
  7170.292  7170.290  0.500  1.945797  151.995  21.716  0.145581
  7174.853  7174.850  0.500  1.946826  151.897  21.6797  0.164569
  7179.594  7179.580  0.500  1.943811  151.808  21.7324  0.190338
  7184.494  7184.480  0.500  1.938367  151.712  21.8372  0.187211
  7189.552  7189.550  0.500  1.932762  151.611  21.9454  0.162692
  7194.798  7194.790  0.500  1.927100  151.414  22.0413  0.142610
  7200.224  7200.210  0.500  1.920641  151.303  22.1678  0.164134
  7205.790  7205.790  0.500  1.913207  151.173  22.3141  0.206733
  7211.562  7211.550  0.500  1.905873  151.341  22.5033  0.188349
  7217.485  7217.480  0.500  1.898601  151.171  22.6421  0.115077
  7223.595  7223.580  0.500  1.892018  150.987  22.7639  0.109861
  7229.856  7229.850  0.500  1.885801  151.025  22.9116  0.166553
  7236.305  7236.290  0.500  1.879893  150.849  23.0206  0.234410
  7242.912  7242.900  0.500  1.874079  150.719  23.1348  0.233870
  7249.701  7249.690  0.500  1.868201  150.444  23.2288  0.208780
  7256.664  7256.650  0.500  1.862273  150.424  23.3638  0.222995
  7263.782  7263.770  0.500  1.855635  139.372  21.7914  0.194958
  7271.079  7271.070  0.500  1.848258  150.529  23.7101  0.192378
  7278.562  7278.550  0.500  1.841067  150.498  23.8762  0.174495
  7286.205  7286.190  0.500  1.833374  150.08  23.9937  0.158339
  7294.014  7294.000  0.500  1.825579  150.097  24.1843  0.176975
  7302.008  7301.990  0.500  1.817916  148.177  24.0585  0.229583
  7310.163  7310.150  0.500  1.809566  149.897  24.5419  0.259116
  7318.483  7318.470  0.500  1.801084  149.711  24.7202  0.261941
  7326.983  7326.970  0.500  1.792985  149.506  24.8872  0.266071
  7335.665  7335.650  0.500  1.784946  149.341  25.0603  0.280704
  7344.497  7344.490  0.500  1.777202  149.075  25.2102  0.273280
  7353.515  7353.500  0.500  1.769097  148.905  25.3863  0.234692
  7362.700  7362.690  0.500  1.760061  148.693  25.5803  0.212399
  7372.065  7372.050  0.500  1.751409  148.493  25.7678  0.223378
  7381.586  7381.570  0.500  1.742233  148.256  25.9639  0.295648
  7391.277  7391.270  0.500  1.733458  148.012  26.1496  0.327132
  7401.160  7401.150  0.500  1.724312  147.77  26.3467  0.319302
  7411.203  7411.190  0.500  1.715145  147.51  26.5426  0.322037
  7421.411  7421.400  0.500  1.706173  147.22  26.7292  0.329167
  7431.798  7431.790  0.500  1.696638  146.935  26.9331  0.344177
  7442.357  7442.350  0.500  1.687181  146.552  27.118  0.330717
  7453.091  7453.080  0.500  1.677256  145.166  27.1295  0.311469
  7463.992  7463.980  0.500  1.667725  146.041  27.5545  0.324056
  7475.065  7475.050  0.500  1.658102  145.847  27.7839  0.357803
  7486.300  7486.290  0.500  1.648209  145.478  27.9892  0.387378
  7497.727  7497.710  0.500  1.638261  145.136  28.2024  0.411658
  7509.304  7509.290  0.500  1.627900  144.746  28.4197  0.410475
  7521.069  7521.050  0.500  1.618075  144.353  28.6224  0.421169
  7532.992  7532.980  0.500  1.607666  143.976  28.8464  0.424973
  7545.100  7545.080  0.500  1.597361  143.542  29.0572  0.436310
  7557.365  7557.350  0.500  1.587227  143.118  29.2665  0.438245
  7569.806  7569.790  0.500  1.576611  142.664  29.4851  0.440538
  7582.424  7582.410  0.500  1.566266  142.204  29.6955  0.472527
  7595.207  7595.190  0.500  1.555426  141.612  29.8942  0.492957
  7608.172  7608.150  0.500  1.544848  140.573  29.9905  0.503653
  7621.297  7621.280  0.500  1.533981  140.38  30.2766  0.520893
  7634.603  7634.580  0.500  1.523327  140.166  30.554  0.533257
  7648.072  7648.050  0.500  1.512299  139.641  30.7772  0.557720
  7661.718  7661.700  0.500  1.501404  139.123  30.999  0.571148
  7675.498  7675.510  0.500  1.490560  139.088  31.329  0.576886
  7689.516  7689.500  0.500  1.479315  138.733  31.6024  0.588913
  7703.645  7703.660  0.500  1.468118  137.966  31.7816  0.610635
  7717.975  7717.990  0.500  1.457067  137.385  31.9995  0.634860
  7732.513  7732.490  0.500  1.446450  136.83  32.2105  0.654394
  7747.175  7747.160  0.500  1.434846  136.262  32.4511  0.672761
  7762.013  7762.000  0.500  1.423517  135.672  32.6786  0.691657
  7777.036  7777.020  0.500  1.412117  135.053  32.9026  0.716454
  7792.177  7792.200  0.500  1.400871  134.439  33.1233  0.736876
  7807.556  7807.560  0.500  1.389362  133.798  33.347  0.753495
  7823.078  7823.090  0.500  1.377951  133.136  33.5627  0.771335
  7838.775  7838.790  0.500  1.366510  132.176  33.7043  0.789003
  7854.640  7854.660  0.500  1.354766  130.958  33.7882  0.808112
  7870.696  7870.710  0.500  1.343100  131.169  34.2397  0.840073
  7886.897  7886.920  0.500  1.331384  130.495  34.4652  0.867106
  7903.289  7903.310  0.500  1.319902  129.749  34.664  0.892438
  7919.854  7919.870  0.500  1.308087  129.016  34.8778  0.918287
  7936.591  7936.600  0.500  1.296631  128.069  35.0207  0.940980
  7953.477  7953.500  0.500  1.284916  127.372  35.2405  0.963278
  7964.832  7964.860  0.500  1.277274  126.786  35.3473  0.979232