File: xdidata/Fe/Fe-NiFerrite.xdi
# XDI/1.0 BlueSky/1.10.0 BMM/2023-1.0-py310-tiled
# Beamline.name: BMM (06BM) -- Beamline for Materials Measurement (NIST)
# Beamline.xray_source: NSLS-II three-pole wiggler
# Beamline.collimation: paraboloid mirror, 5 nm Rh on 30 nm Pt
# Beamline.focusing: not in use
# Beamline.harmonic_rejection: flat mirror, Si stripe, pitch = 7.0 mrad relative to beam
# Beamline.software: Bluesky 1.10.0, Ophyd 1.7.0, DataBroker 2.0.0b13, Python 3.10.8, 2023-1.0-py310-tiled
# Detector.I0: 10 cm N2
# Detector.I1: 25 cm N2
# Detector.I2: 25 cm N2
# Element.symbol: Fe
# Element.edge: K
# Element.reference: Fe
# Element.reference_material: Fe foil
# Facility.name: NSLS-II
# Facility.energy: 3.0
# Facility.current: 400.2
# Facility.mode: top-off
# Facility.GUP: 123456
# Facility.SAF: 301027
# Facility.cycle: 2023-2
# Mono.name: Si(111)
# Mono.d_spacing: 3.13519
# Mono.encoder_resolution: 0.0000050 deg/ct
# Mono.angle_offset: 16.0754 deg
# Mono.scan_mode: pseudo channel cut
# Mono.scan_type: step
# Mono.direction: forward in energy
# Sample.name: NiFe2O4
# Sample.prep: PEG pellet
# Sample.x: 116.329 mm
# Sample.y: 114.126 mm
# Sample.SDD_position: 205.000 mm
# Scan.experimenters: Bruce Ravel
# Scan.edge_energy: 7112.0
# Scan.start_time: 2023-05-05T17:48:11
# Scan.end_time: 2023-05-05T17:56:23
# Scan.transient_id: 74531
# Scan.uid: 2f81a31a-4a77-4168-9e74-123fd3d817ea
# Scan.plot_hint: ln(I0/It)  --  ln($5/$6)
# Column.1: energy eV
# Column.2: requested_energy eV
# Column.3: measurement_time seconds
# Column.4: xmu
# Column.5: I0 nA
# Column.6: It nA
# Column.7: Ir nA
# ///////////
# courtesy Martin Stennett, University of Sheffield
# -----------
# energy  requested_energy  measurement_time  xmu  I0  It  Ir
  6912.001  6912.000  0.500  2.672943  153.607  10.6063  1.973867
  6942.019  6942.000  0.500  2.630358  153.439  11.0557  2.102144
  6972.026  6972.000  0.500  2.588340  153.405  11.5276  2.238474
  7002.013  7002.000  0.500  2.547241  153.257  11.9996  2.378085
  7032.010  7032.000  0.500  2.507368  153.074  12.4728  2.521170
  7062.008  7062.000  0.500  2.468464  152.153  12.8896  2.652141
  7083.978  7084.000  0.500  2.442964  152.461  13.2493  2.751480
  7089.981  7090.000  0.500  2.436779  152.561  13.3403  2.771203
  7096.112  7096.000  0.500  2.431452  152.477  13.4041  2.778499
  7101.997  7102.000  0.500  2.428256  152.398  13.44  2.762783
  7102.884  7102.900  0.500  2.427974  152.379  13.4421  2.755265
  7103.787  7103.800  0.500  2.428033  152.343  13.4382  2.746014
  7104.688  7104.700  0.500  2.428221  152.316  13.4333  2.734493
  7105.587  7105.600  0.500  2.428607  152.283  13.4252  2.718359
  7106.488  7106.500  0.500  2.429272  152.256  13.4139  2.697146
  7107.385  7107.400  0.500  2.430239  152.232  13.3988  2.668375
  7108.291  7108.300  0.500  2.431685  152.198  13.3764  2.623914
  7109.191  7109.200  0.500  2.434159  152.171  13.3411  2.552034
  7110.093  7110.100  0.500  2.438143  152.112  13.2829  2.401716
  7110.995  7111.000  0.500  2.446038  152.052  13.1732  2.019392
  7111.889  7111.900  0.500  2.466444  151.963  12.8996  1.435844
  7112.792  7112.800  0.500  2.533962  151.86  12.0492  1.048078
  7113.699  7113.700  0.500  2.618885  151.799  11.0638  0.818209
  7114.600  7114.600  0.500  2.579841  151.795  11.5039  0.747884
  7115.498  7115.500  0.500  2.546477  151.744  11.8902  0.722470
  7116.395  7116.400  0.500  2.549137  151.712  11.8562  0.698136
  7117.295  7117.300  0.500  2.558238  151.661  11.7448  0.646777
  7118.203  7118.200  0.500  2.571637  151.638  11.5867  0.539425
  7119.101  7119.100  0.500  2.606732  151.589  11.1835  0.414276
  7119.998  7120.000  0.500  2.680894  151.538  10.3807  0.302024
  7120.894  7120.900  0.500  2.824476  151.488  8.989279  0.201801
  7121.797  7121.800  0.500  3.038556  151.446  7.254848  0.129908
  7122.707  7122.700  0.500  3.256948  151.413  5.830257  0.087312
  7123.600  7123.600  0.500  3.419228  151.342  4.954585  0.064540
  7124.497  7124.500  0.500  3.565222  151.299  4.280349  0.050125
  7125.403  7125.400  0.500  3.772841  151.244  3.476603  0.037056
  7126.301  7126.300  0.500  4.040510  151.784  2.669648  0.026083
  7127.201  7127.200  0.500  4.289539  151.693  2.079906  0.018476
  7128.104  7128.100  0.500  4.447067  151.617  1.775871  0.013746
  7128.996  7129.000  0.500  4.566978  151.547  1.574470  0.010661
  7129.901  7129.900  0.500  4.734183  151.425  1.330970  0.007785
  7130.800  7130.800  0.500  4.951481  151.369  1.070624  0.005890
  7131.704  7131.700  0.500  5.157677  151.275  0.870598  0.004858
  7132.603  7132.600  0.500  5.243053  151.247  0.799204  0.004986
  7133.496  7133.500  0.500  5.179888  151.228  0.851209  0.005933
  7134.400  7134.400  0.500  5.038222  151.225  0.980736  0.007485
  7135.305  7135.300  0.500  4.909698  151.209  1.115126  0.009119
  7136.199  7136.200  0.500  4.831450  151.158  1.205474  0.010406
  7136.989  7137.000  0.500  4.800815  151.15  1.242916  0.010989
  7140.023  7140.010  0.500  4.714004  151.131  1.355464  0.010686
  7143.225  7143.200  0.500  4.513256  151.132  1.656816  0.012592
  7146.550  7146.560  0.500  4.544026  151.063  1.605876  0.011919
  7150.074  7150.080  0.500  4.395158  151.042  1.863398  0.011492
  7153.782  7153.780  0.500  4.230296  150.988  2.196588  0.012764
  7157.661  7157.650  0.500  4.120581  150.949  2.450674  0.014821
  7161.703  7161.700  0.500  4.037308  150.868  2.662060  0.016291
  7165.909  7165.910  0.500  4.054188  150.674  2.614137  0.016936
  7170.290  7170.290  0.500  4.115994  150.628  2.456697  0.016497
  7174.853  7174.850  0.500  4.241542  150.522  2.165317  0.016466
  7179.585  7179.580  0.500  4.318691  150.425  2.003254  0.017565
  7184.483  7184.480  0.500  4.386521  150.321  1.870583  0.016049
  7189.559  7189.550  0.500  4.389271  150.216  1.864145  0.014057
  7194.794  7194.790  0.500  4.367026  150.031  1.903730  0.012316
  7200.219  7200.210  0.500  4.304494  149.912  2.024970  0.015044
  7205.799  7205.790  0.500  4.234288  149.779  2.170310  0.020155
  7211.555  7211.550  0.500  4.194358  149.621  2.256346  0.018856
  7217.491  7217.480  0.500  4.198830  149.4  2.242963  0.011622
  7223.593  7223.580  0.500  4.216844  149.307  2.201546  0.010672
  7229.862  7229.850  0.500  4.217580  149.351  2.200579  0.016039
  7236.303  7236.290  0.500  4.179693  149.204  2.283305  0.023205
  7242.910  7242.900  0.500  4.119361  149.089  2.423432  0.024442
  7249.701  7249.690  0.500  4.062313  148.821  2.561079  0.023004
  7256.657  7256.650  0.500  4.076845  148.855  2.524709  0.024166
  7263.782  7263.770  0.500  4.126361  136.415  2.201943  0.019698
  7271.085  7271.070  0.500  4.166222  149.027  2.311520  0.018826
  7278.557  7278.550  0.500  4.161586  149.019  2.322134  0.017104
  7286.196  7286.190  0.500  4.134422  148.623  2.379735  0.015808
  7294.009  7294.000  0.500  4.080927  148.694  2.511717  0.018415
  7302.001  7301.990  0.500  4.040985  146.926  2.582976  0.024597
  7310.163  7310.150  0.500  4.010573  148.482  2.690941  0.028204
  7318.483  7318.470  0.500  3.993993  148.326  2.733047  0.028682
  7326.983  7326.970  0.500  4.003355  148.558  2.711826  0.028929
  7335.658  7335.650  0.500  4.004028  148.546  2.709772  0.030262
  7344.506  7344.490  0.500  3.975655  148.267  2.782531  0.030113
  7353.517  7353.500  0.500  3.938314  148.123  2.885590  0.026721
  7362.703  7362.690  0.500  3.913766  147.862  2.952088  0.024461
  7372.060  7372.050  0.500  3.903572  147.685  2.978758  0.025683
  7381.584  7381.570  0.500  3.893661  147.487  3.004398  0.034087
  7391.279  7391.270  0.500  3.876217  147.254  3.052438  0.037988
  7401.157  7401.150  0.500  3.869227  147.012  3.068808  0.037021
  7411.201  7411.190  0.500  3.851464  146.775  3.118755  0.037822
  7421.401  7421.400  0.500  3.824954  146.476  3.196018  0.039126
  7431.798  7431.790  0.500  3.799718  146.241  3.272445  0.041700
  7442.359  7442.350  0.500  3.774482  145.845  3.347002  0.040647
  7453.095  7453.080  0.500  3.759121  144.493  3.367305  0.038532
  7463.990  7463.980  0.500  3.745105  145.347  3.435004  0.040269
  7475.058  7475.050  0.500  3.719010  145.161  3.521325  0.045172
  7486.305  7486.290  0.500  3.700729  144.772  3.576662  0.049125
  7497.722  7497.710  0.500  3.683209  144.446  3.631696  0.052735
  7509.304  7509.290  0.500  3.665682  144.034  3.685350  0.052855
  7521.066  7521.050  0.500  3.645951  143.641  3.748534  0.054893
  7532.994  7532.980  0.500  3.627185  143.232  3.808677  0.055780
  7545.083  7545.080  0.500  3.608909  142.84  3.868304  0.057671
  7557.343  7557.350  0.500  3.586012  142.396  3.945593  0.058631
  7569.777  7569.790  0.500  3.563651  141.965  4.022616  0.059663
  7582.405  7582.410  0.500  3.544744  141.456  4.084680  0.064627
  7595.185  7595.190  0.500  3.525403  140.869  4.147170  0.067947
  7608.174  7608.150  0.500  3.507602  139.82  4.190235  0.069883
  7621.299  7621.280  0.500  3.487599  139.613  4.268547  0.072896
  7634.603  7634.580  0.500  3.464858  139.342  4.358272  0.075518
  7648.055  7648.050  0.500  3.442677  138.854  4.440408  0.079841
  7661.711  7661.700  0.500  3.422094  138.343  4.516075  0.082625
  7675.506  7675.510  0.500  3.401748  137.738  4.588735  0.083938
  7689.483  7689.500  0.500  3.382650  137.351  4.664080  0.086301
  7703.672  7703.660  0.500  3.364510  136.648  4.725131  0.090029
  7717.975  7717.990  0.500  3.344358  136.057  4.800468  0.094636
  7732.488  7732.490  0.500  3.322315  135.47  4.886285  0.098599
  7747.145  7747.160  0.500  3.300178  135.009  4.978686  0.102572
  7761.977  7762.000  0.500  3.278576  134.352  5.062645  0.106568
  7777.034  7777.020  0.500  3.258117  133.792  5.145748  0.111352
  7792.193  7792.200  0.500  3.237693  133.2  5.228685  0.115560
  7807.582  7807.560  0.500  3.217270  132.565  5.311104  0.119302
  7823.099  7823.090  0.500  3.196227  131.997  5.400834  0.123413
  7838.780  7838.790  0.500  3.174396  131.135  5.483992  0.127563
  7854.645  7854.660  0.500  3.152895  129.858  5.548595  0.131833
  7870.698  7870.710  0.500  3.130854  130.192  5.686839  0.138675
  7886.899  7886.920  0.500  3.110100  129.597  5.779581  0.144567
  7903.297  7903.310  0.500  3.089240  128.904  5.869837  0.150143
  7919.860  7919.870  0.500  3.068399  128.716  5.984713  0.156579
  7936.586  7936.600  0.500  3.047136  127.8  6.069836  0.162025
  7953.485  7953.500  0.500  3.025973  127.251  6.173022  0.167804
  7964.851  7964.860  0.500  3.011934  126.724  6.234365  0.171699