File: xdidata/Fe/Fe-Siderite.xdi
# XDI/1.0 BlueSky/1.10.0 BMM/2023-1.0-py310-tiled
# Beamline.name: BMM (06BM) -- Beamline for Materials Measurement (NIST)
# Beamline.xray_source: NSLS-II three-pole wiggler
# Beamline.collimation: paraboloid mirror, 5 nm Rh on 30 nm Pt
# Beamline.focusing: not in use
# Beamline.harmonic_rejection: flat mirror, Si stripe, pitch = 7.0 mrad relative to beam
# Beamline.software: Bluesky 1.10.0, Ophyd 1.7.0, DataBroker 2.0.0b13, Python 3.10.8, 2023-1.0-py310-tiled
# Detector.I0: 10 cm N2
# Detector.I1: 25 cm N2
# Detector.I2: 25 cm N2
# Element.symbol: Fe
# Element.edge: K
# Element.reference: Fe
# Element.reference_material: Fe foil
# Facility.name: NSLS-II
# Facility.energy: 3.0
# Facility.current: 399.9
# Facility.mode: top-off
# Facility.GUP: 123456
# Facility.SAF: 301027
# Facility.cycle: 2023-2
# Mono.name: Si(111)
# Mono.d_spacing: 3.13519
# Mono.encoder_resolution: 0.0000050 deg/ct
# Mono.angle_offset: 16.0754 deg
# Mono.scan_mode: pseudo channel cut
# Mono.scan_type: step
# Mono.direction: forward in energy
# Sample.name: FeCO3
# Sample.prep: PEG pellet
# Sample.x: 116.329 mm
# Sample.y: 114.126 mm
# Sample.SDD_position: 205.000 mm
# Scan.experimenters: Bruce Ravel
# Scan.edge_energy: 7112.0
# Scan.start_time: 2023-05-05T18:41:20
# Scan.end_time: 2023-05-05T18:49:30
# Scan.transient_id: 74561
# Scan.uid: 837c2c31-b5ca-400b-811b-e4341530b407
# Scan.plot_hint: ln(I0/It)  --  ln($5/$6)
# Column.1: energy eV
# Column.2: requested_energy eV
# Column.3: measurement_time seconds
# Column.4: xmu
# Column.5: I0 nA
# Column.6: It nA
# Column.7: Ir nA
# ///////////
# courtesy Martin Stennett, University of Sheffield
# -----------
# energy  requested_energy  measurement_time  xmu  I0  It  Ir
  6912.005  6912.000  0.500  2.287491  153.743  15.6081  2.929076
  6942.031  6942.000  0.500  2.250513  153.531  16.1738  3.099426
  6972.003  6972.000  0.500  2.214372  153.459  16.7611  3.280471
  7002.015  7002.000  0.500  2.178667  153.331  17.3558  3.466904
  7032.014  7032.000  0.500  2.143465  153.104  17.9511  3.655671
  7062.002  7062.000  0.500  2.110029  152.217  18.4539  3.824732
  7083.978  7084.000  0.500  2.087799  152.632  18.9202  3.956341
  7089.979  7090.000  0.500  2.082256  152.731  19.0378  3.982716
  7096.347  7096.000  0.500  2.077895  152.624  19.1075  3.989043
  7101.991  7102.000  0.500  2.075604  152.568  19.1443  3.961986
  7102.887  7102.900  0.500  2.075827  152.664  19.1522  3.953258
  7103.783  7103.800  0.500  2.076185  153.126  19.2032  3.951321
  7104.686  7104.700  0.500  2.076338  153.099  19.1969  3.933946
  7105.589  7105.600  0.500  2.076597  153.073  19.1886  3.912122
  7106.488  7106.500  0.500  2.077491  153.044  19.1679  3.879905
  7107.389  7107.400  0.500  2.078741  153.029  19.142  3.837724
  7108.293  7108.300  0.500  2.079960  152.998  19.1148  3.775056
  7109.186  7109.200  0.500  2.082171  152.982  19.0706  3.672601
  7110.097  7110.100  0.500  2.086873  152.905  18.9717  3.451688
  7110.997  7111.000  0.500  2.099682  152.856  18.7242  2.887014
  7111.893  7111.900  0.500  2.115379  152.778  18.4231  2.058810
  7112.796  7112.800  0.500  2.114365  152.699  18.4322  1.607382
  7113.695  7113.700  0.500  2.117207  152.633  18.372  1.367282
  7114.600  7114.600  0.500  2.118229  152.6  18.3493  1.201393
  7115.500  7115.500  0.500  2.126103  152.571  18.2019  1.112840
  7116.395  7116.400  0.500  2.149680  152.542  17.7744  1.053572
  7117.301  7117.300  0.500  2.206178  152.504  16.7939  0.931430
  7118.199  7118.200  0.500  2.307058  152.462  15.1781  0.713823
  7119.099  7119.100  0.500  2.435132  152.407  13.3488  0.498080
  7120.000  7120.000  0.500  2.577014  152.369  11.5802  0.339395
  7120.896  7120.900  0.500  2.789536  152.307  9.359211  0.211547
  7121.801  7121.800  0.500  3.093128  152.261  6.906551  0.124093
  7122.702  7122.700  0.500  3.448890  152.229  4.837966  0.073092
  7123.602  7123.600  0.500  3.741551  152.215  3.610130  0.047447
  7124.503  7124.500  0.500  3.865415  152.119  3.187540  0.037416
  7125.394  7125.400  0.500  3.877857  152.089  3.147500  0.033571
  7126.303  7126.300  0.500  3.825542  152.033  3.315321  0.032102
  7127.203  7127.200  0.500  3.735629  151.966  3.625631  0.031631
  7128.102  7128.100  0.500  3.596554  151.885  4.164390  0.032088
  7129.000  7129.000  0.500  3.469198  151.827  4.728207  0.031420
  7129.901  7129.900  0.500  3.385861  151.752  5.136566  0.029612
  7130.806  7130.800  0.500  3.332730  151.622  5.412222  0.028487
  7131.708  7131.700  0.500  3.320256  151.579  5.478595  0.029449
  7132.597  7132.600  0.500  3.357471  151.578  5.278429  0.031165
  7133.501  7133.500  0.500  3.423109  151.533  4.941609  0.033175
  7134.403  7134.400  0.500  3.478715  151.529  4.674205  0.035306
  7135.301  7135.300  0.500  3.503995  151.514  4.557080  0.037200
  7136.201  7136.200  0.500  3.511451  151.465  4.521782  0.038579
  7137.002  7137.000  0.500  3.501469  151.488  4.567823  0.039278
  7140.021  7140.010  0.500  3.319054  151.48  5.481630  0.042132
  7143.216  7143.200  0.500  3.116934  151.483  6.709612  0.050471
  7146.583  7146.560  0.500  2.973827  151.405  7.737929  0.056485
  7150.080  7150.080  0.500  2.956167  151.435  7.877314  0.048199
  7153.784  7153.780  0.500  3.008506  151.375  7.472687  0.043034
  7157.656  7157.650  0.500  3.133633  151.332  6.591902  0.039546
  7161.711  7161.700  0.500  3.228698  151.551  6.002803  0.036658
  7165.920  7165.910  0.500  3.278538  151.627  5.713796  0.036766
  7170.299  7170.290  0.500  3.326412  151.491  5.441831  0.036475
  7174.858  7174.850  0.500  3.296855  151.403  5.601802  0.042725
  7179.594  7179.580  0.500  3.230836  151.337  5.981509  0.052429
  7184.490  7184.480  0.500  3.216457  151.232  6.063927  0.052005
  7189.557  7189.550  0.500  3.207985  151.13  6.111410  0.045389
  7194.796  7194.790  0.500  3.160098  150.929  6.402636  0.041468
  7200.217  7200.210  0.500  3.113664  150.826  6.702369  0.049719
  7205.799  7205.790  0.500  3.122022  150.68  6.640150  0.061601
  7211.562  7211.550  0.500  3.114306  150.546  6.685645  0.055920
  7217.494  7217.480  0.500  3.121271  150.381  6.631946  0.033781
  7223.595  7223.580  0.500  3.122095  150.228  6.619762  0.032161
  7229.862  7229.850  0.500  3.125054  150.245  6.600950  0.048136
  7236.303  7236.290  0.500  3.124727  150.067  6.595303  0.067238
  7242.910  7242.900  0.500  3.120893  149.995  6.617434  0.066949
  7249.703  7249.690  0.500  3.127406  149.726  6.562695  0.058858
  7256.668  7256.650  0.500  3.131152  149.7  6.536999  0.062481
  7263.784  7263.770  0.500  3.093979  137.944  6.251790  0.056041
  7271.076  7271.070  0.500  3.054403  149.832  7.064701  0.057228
  7278.564  7278.550  0.500  3.039315  149.809  7.171015  0.052436
  7286.198  7286.190  0.500  3.048140  149.357  7.086531  0.046790
  7294.012  7294.000  0.500  3.033836  149.408  7.191093  0.052677
  7302.001  7301.990  0.500  3.022585  147.545  7.181766  0.068355
  7310.161  7310.150  0.500  3.005111  149.219  7.391316  0.078137
  7318.481  7318.470  0.500  2.991339  149.009  7.483271  0.079293
  7326.990  7326.970  0.500  2.990679  148.813  7.478359  0.079997
  7335.661  7335.650  0.500  2.982029  148.625  7.533798  0.084289
  7344.500  7344.490  0.500  2.981415  148.361  7.525004  0.081388
  7353.512  7353.500  0.500  2.967845  148.17  7.617993  0.070423
  7362.698  7362.690  0.500  2.941596  147.95  7.808985  0.064866
  7372.060  7372.050  0.500  2.919219  147.739  7.974336  0.069144
  7381.586  7381.570  0.500  2.907616  147.501  8.054404  0.091741
  7391.282  7391.270  0.500  2.894418  147.251  8.147555  0.102034
  7401.160  7401.150  0.500  2.880919  147.013  8.244952  0.099883
  7411.196  7411.190  0.500  2.874319  146.763  8.285429  0.100525
  7421.408  7421.400  0.500  2.864269  146.463  8.352015  0.102766
  7431.802  7431.790  0.500  2.845565  146.164  8.492316  0.108562
  7442.354  7442.350  0.500  2.829927  145.811  8.605338  0.104849
  7453.095  7453.080  0.500  2.818858  144.465  8.620812  0.098900
  7463.990  7463.980  0.500  2.808083  145.295  8.764258  0.103040
  7475.058  7475.050  0.500  2.793617  145.081  8.878864  0.114303
  7486.298  7486.290  0.500  2.777081  144.691  9.002639  0.124366
  7497.727  7497.710  0.500  2.760917  144.34  9.127130  0.133183
  7509.288  7509.290  0.500  2.745850  143.957  9.241128  0.133301
  7521.047  7521.050  0.500  2.730396  143.572  9.359945  0.137723
  7532.997  7532.980  0.500  2.717317  143.164  9.456205  0.139251
  7545.100  7545.080  0.500  2.704119  142.765  9.555145  0.143411
  7557.380  7557.350  0.500  2.689002  142.591  9.688867  0.145037
  7569.774  7569.790  0.500  2.673643  142.155  9.808765  0.146389
  7582.424  7582.410  0.500  2.661004  141.686  9.900713  0.157573
  7595.214  7595.190  0.500  2.646653  141.113  10.0032  0.164788
  7608.140  7608.150  0.500  2.630406  140.065  10.0915  0.169243
  7621.265  7621.280  0.500  2.615108  139.918  10.2364  0.175977
  7634.603  7634.580  0.500  2.599092  139.707  10.386  0.180946
  7648.030  7648.050  0.500  2.583881  139.207  10.5074  0.190099
  7661.696  7661.700  0.500  2.568008  138.677  10.6349  0.195614
  7675.501  7675.510  0.500  2.552812  138.198  10.7604  0.198106
  7689.478  7689.500  0.500  2.538354  137.875  10.8916  0.202761
  7703.655  7703.660  0.500  2.523200  137.152  10.9999  0.211160
  7717.980  7717.990  0.500  2.507631  136.59  11.1268  0.220512
  7732.488  7732.490  0.500  2.492064  136.043  11.256  0.228471
  7747.145  7747.160  0.500  2.476403  135.573  11.3942  0.235921
  7761.982  7762.000  0.500  2.460434  134.952  11.5246  0.243724
  7777.013  7777.020  0.500  2.444795  134.375  11.6562  0.253660
  7792.193  7792.200  0.500  2.429252  133.801  11.7883  0.262369
  7807.548  7807.560  0.500  2.412986  133.188  11.9266  0.269034
  7823.112  7823.090  0.500  2.396994  132.608  12.0662  0.277112
  7838.770  7838.790  0.500  2.380950  131.678  12.1753  0.284818
  7854.640  7854.660  0.500  2.365193  130.405  12.2491  0.292546
  7870.706  7870.710  0.500  2.349470  130.62  12.4637  0.305727
  7886.899  7886.920  0.500  2.333678  129.941  12.5963  0.316771
  7903.289  7903.310  0.500  2.317509  129.194  12.728  0.327525
  7919.844  7919.870  0.500  2.302029  128.473  12.8545  0.338003
  7936.572  7936.600  0.500  2.285928  127.455  12.9596  0.347764
  7953.471  7953.500  0.500  2.269741  126.816  13.105  0.358335
  7964.832  7964.860  0.500  2.259354  126.264  13.1842  0.364927