File: xdidata/Fe/Fe-Vivianite.xdi
# XDI/1.0 BlueSky/1.10.0 BMM/2023-1.0-py310-tiled
# Beamline.name: BMM (06BM) -- Beamline for Materials Measurement (NIST)
# Beamline.xray_source: NSLS-II three-pole wiggler
# Beamline.collimation: paraboloid mirror, 5 nm Rh on 30 nm Pt
# Beamline.focusing: not in use
# Beamline.harmonic_rejection: flat mirror, Si stripe, pitch = 7.0 mrad relative to beam
# Beamline.software: Bluesky 1.10.0, Ophyd 1.7.0, DataBroker 2.0.0b13, Python 3.10.8, 2023-1.0-py310-tiled
# Detector.I0: 10 cm N2
# Detector.I1: 25 cm N2
# Detector.I2: 25 cm N2
# Element.symbol: Fe
# Element.edge: K
# Element.reference: Fe
# Element.reference_material: Fe foil
# Facility.name: NSLS-II
# Facility.energy: 3.0
# Facility.current: 400.3
# Facility.mode: top-off
# Facility.GUP: 123456
# Facility.SAF: 301027
# Facility.cycle: 2023-2
# Mono.name: Si(111)
# Mono.d_spacing: 3.13519
# Mono.encoder_resolution: 0.0000050 deg/ct
# Mono.angle_offset: 16.0754 deg
# Mono.scan_mode: pseudo channel cut
# Mono.scan_type: step
# Mono.direction: forward in energy
# Sample.name: Fe3(PO4)2
# Sample.prep: PEG pellet
# Sample.x: 116.329 mm
# Sample.y: 114.126 mm
# Sample.SDD_position: 205.000 mm
# Scan.experimenters: Bruce Ravel
# Scan.edge_energy: 7112.0
# Scan.start_time: 2023-05-05T18:32:27
# Scan.end_time: 2023-05-05T18:40:35
# Scan.transient_id: 74556
# Scan.uid: c56555d7-415b-4074-89aa-fb0bbff20d1d
# Scan.plot_hint: ln(I0/It)  --  ln($5/$6)
# Column.1: energy eV
# Column.2: requested_energy eV
# Column.3: measurement_time seconds
# Column.4: xmu
# Column.5: I0 nA
# Column.6: It nA
# Column.7: Ir nA
# ///////////
# courtesy Martin Stennett, University of Sheffield
# -----------
# energy  requested_energy  measurement_time  xmu  I0  It  Ir
  6912.001  6912.000  0.500  3.177783  153.921  6.415103  1.204403
  6942.019  6942.000  0.500  3.129301  153.721  6.725032  1.289196
  6972.018  6972.000  0.500  3.081828  153.678  7.050020  1.380179
  7002.013  7002.000  0.500  3.035445  153.566  7.379361  1.474811
  7032.014  7032.000  0.500  2.990238  153.336  7.709015  1.570455
  7062.012  7062.000  0.500  2.946931  152.451  8.003751  1.659427
  7083.991  7084.000  0.500  2.919788  152.656  8.235066  1.722919
  7089.992  7090.000  0.500  2.913844  152.794  8.291616  1.734934
  7096.317  7096.000  0.500  2.910197  152.681  8.315760  1.736296
  7101.999  7102.000  0.500  2.910755  152.636  8.308693  1.720013
  7102.889  7102.900  0.500  2.911444  152.588  8.300353  1.713795
  7103.785  7103.800  0.500  2.912520  152.595  8.291778  1.706979
  7104.688  7104.700  0.500  2.913880  152.581  8.279754  1.697412
  7105.584  7105.600  0.500  2.915315  152.542  8.265773  1.685634
  7106.488  7106.500  0.500  2.917677  152.522  8.245221  1.669682
  7107.383  7107.400  0.500  2.920162  152.544  8.225946  1.649903
  7108.287  7108.300  0.500  2.924043  152.491  8.191208  1.618824
  7109.188  7109.200  0.500  2.929175  152.414  8.145162  1.568673
  7110.093  7110.100  0.500  2.938672  152.397  8.067262  1.468690
  7110.995  7111.000  0.500  2.961922  152.379  7.880964  1.214208
  7111.889  7111.900  0.500  2.993641  152.258  7.628855  0.851774
  7112.792  7112.800  0.500  3.006519  152.164  7.526560  0.657234
  7113.699  7113.700  0.500  3.020476  152.126  7.420382  0.552904
  7114.600  7114.600  0.500  3.024320  152.534  7.411744  0.486249
  7115.500  7115.500  0.500  3.027121  152.505  7.389597  0.453253
  7116.393  7116.400  0.500  3.053046  152.514  7.200929  0.428058
  7117.297  7117.300  0.500  3.122759  152.46  6.713668  0.373563
  7118.201  7118.200  0.500  3.275119  152.382  5.761906  0.271940
  7119.099  7119.100  0.500  3.559150  152.37  4.336918  0.163448
  7120.000  7120.000  0.500  3.975128  152.313  2.859962  0.085091
  7120.892  7120.900  0.500  4.530060  152.264  1.641414  0.037818
  7121.801  7121.800  0.500  5.051089  152.229  0.974625  0.017904
  7122.705  7122.700  0.500  5.431445  152.176  0.666038  0.010341
  7123.602  7123.600  0.500  5.842161  152.135  0.441582  0.006132
  7124.497  7124.500  0.500  6.325404  152.06  0.272224  0.003591
  7125.399  7125.400  0.500  6.774313  152.025  0.173727  0.002126
  7126.301  7126.300  0.500  7.089856  151.949  0.126652  0.001443
  7127.203  7127.200  0.500  7.154821  151.914  0.118659  0.001286
  7128.099  7128.100  0.500  6.985471  151.816  0.140464  0.001350
  7128.994  7129.000  0.500  6.818162  151.756  0.165980  0.001373
  7129.903  7129.900  0.500  6.738987  151.646  0.179525  0.001373
  7130.802  7130.800  0.500  6.703013  151.545  0.185977  0.001339
  7131.704  7131.700  0.500  6.626735  151.477  0.200628  0.001343
  7132.601  7132.600  0.500  6.504885  151.484  0.226636  0.001737
  7133.494  7133.500  0.500  6.366943  151.449  0.260098  0.002064
  7134.398  7134.400  0.500  6.262820  151.448  0.288638  0.002568
  7135.301  7135.300  0.500  6.213507  151.463  0.303260  0.002696
  7136.203  7136.200  0.500  6.199731  151.444  0.307428  0.002908
  7136.998  7137.000  0.500  6.198817  151.396  0.307611  0.002995
  7140.026  7140.010  0.500  6.088931  151.372  0.343287  0.002948
  7143.190  7143.200  0.500  5.938281  151.327  0.398982  0.003282
  7146.563  7146.560  0.500  5.686184  151.344  0.513437  0.004057
  7150.078  7150.080  0.500  5.459607  151.319  0.643897  0.004241
  7153.782  7153.780  0.500  5.387598  151.282  0.691804  0.004288
  7157.652  7157.650  0.500  5.495827  151.216  0.620571  0.003972
  7161.703  7161.700  0.500  5.650388  151.107  0.531314  0.003542
  7165.913  7165.910  0.500  5.809722  150.936  0.452545  0.003132
  7170.301  7170.290  0.500  5.924628  150.87  0.403246  0.002892
  7174.864  7174.850  0.500  5.991262  150.769  0.376998  0.003214
  7179.581  7179.580  0.500  5.958529  150.689  0.389338  0.003799
  7184.485  7184.480  0.500  5.928619  150.568  0.400836  0.003828
  7189.561  7189.550  0.500  5.869773  150.478  0.424877  0.003485
  7194.796  7194.790  0.500  5.785329  150.285  0.461721  0.003286
  7200.222  7200.210  0.500  5.707810  150.173  0.498566  0.003974
  7205.803  7205.790  0.500  5.661595  150.028  0.521641  0.005198
  7211.555  7211.550  0.500  5.645245  149.86  0.529647  0.004486
  7217.494  7217.480  0.500  5.662278  149.707  0.520171  0.002913
  7223.590  7223.580  0.500  5.685188  149.55  0.507855  0.002707
  7229.864  7229.850  0.500  5.686309  149.556  0.507307  0.004062
  7236.299  7236.290  0.500  5.666208  149.677  0.518027  0.005540
  7242.912  7242.900  0.500  5.645341  149.579  0.528605  0.005596
  7249.694  7249.690  0.500  5.658686  149.319  0.520691  0.004923
  7256.668  7256.650  0.500  5.673973  149.285  0.512674  0.005125
  7263.789  7263.770  0.500  5.655468  137.506  0.481043  0.004350
  7271.083  7271.070  0.500  5.620333  149.449  0.541517  0.004634
  7278.557  7278.550  0.500  5.584796  149.412  0.560969  0.004299
  7286.198  7286.190  0.500  5.553781  149.003  0.577056  0.004009
  7294.012  7294.000  0.500  5.520513  149.018  0.596635  0.004562
  7302.001  7301.990  0.500  5.491960  147.166  0.606288  0.005995
  7310.159  7310.150  0.500  5.475013  148.814  0.623556  0.006795
  7318.481  7318.470  0.500  5.464223  148.634  0.629556  0.006913
  7326.981  7326.970  0.500  5.455837  148.41  0.633903  0.007089
  7335.667  7335.650  0.500  5.442421  148.204  0.641575  0.007556
  7344.497  7344.490  0.500  5.419639  147.99  0.655410  0.007348
  7353.519  7353.500  0.500  5.390333  147.759  0.673850  0.006466
  7362.700  7362.690  0.500  5.366754  147.528  0.688849  0.005985
  7372.063  7372.050  0.500  5.341943  147.375  0.705418  0.006406
  7381.579  7381.570  0.500  5.317033  147.131  0.722016  0.008528
  7391.279  7391.270  0.500  5.292879  146.918  0.738598  0.009429
  7401.164  7401.150  0.500  5.269609  146.621  0.754459  0.009212
  7411.201  7411.190  0.500  5.246435  146.381  0.770880  0.009653
  7421.406  7421.400  0.500  5.220257  146.152  0.790090  0.009978
  7431.805  7431.790  0.500  5.198298  145.841  0.805915  0.010596
  7442.354  7442.350  0.500  5.175925  145.476  0.822082  0.010142
  7453.098  7453.080  0.500  5.150743  144.088  0.835003  0.009741
  7463.992  7463.980  0.500  5.127862  144.938  0.859369  0.010334
  7475.060  7475.050  0.500  5.105735  144.732  0.877351  0.011542
  7486.310  7486.290  0.500  5.081417  144.371  0.896702  0.012547
  7497.743  7497.710  0.500  5.054558  143.987  0.918661  0.013586
  7509.319  7509.290  0.500  5.028126  143.584  0.940627  0.013777
  7521.052  7521.050  0.500  5.003184  143.246  0.962119  0.014478
  7532.980  7532.980  0.500  4.979299  142.853  0.982672  0.014751
  7545.112  7545.080  0.500  4.954948  142.409  1.003760  0.015225
  7557.336  7557.350  0.500  4.930271  141.999  1.025879  0.015588
  7569.779  7569.790  0.500  4.904916  141.583  1.049139  0.015937
  7582.429  7582.410  0.500  4.880151  141.081  1.071634  0.017235
  7595.185  7595.190  0.500  4.855137  140.478  1.094083  0.018340
  7608.177  7608.150  0.500  4.829242  139.429  1.114397  0.018853
  7621.270  7621.280  0.500  4.803602  139.296  1.142249  0.019903
  7634.608  7634.580  0.500  4.777797  138.963  1.169307  0.020498
  7648.057  7648.050  0.500  4.752635  138.409  1.194323  0.021914
  7661.688  7661.700  0.500  4.726658  137.918  1.221401  0.022764
  7675.503  7675.510  0.500  4.700730  137.337  1.248207  0.023209
  7689.523  7689.500  0.500  4.675175  136.983  1.277220  0.024018
  7703.657  7703.660  0.500  4.648959  136.148  1.303145  0.025275
  7717.972  7717.990  0.500  4.623128  135.532  1.331200  0.026708
  7732.508  7732.490  0.500  4.597126  135.707  1.368031  0.027959
  7747.145  7747.160  0.500  4.571060  135.176  1.398664  0.029277
  7761.985  7762.000  0.500  4.545161  134.519  1.428389  0.030375
  7777.013  7777.020  0.500  4.519015  133.928  1.459786  0.031925
  7792.180  7792.200  0.500  4.492343  133.277  1.491952  0.033442
  7807.545  7807.560  0.500  4.465867  132.677  1.525081  0.034822
  7823.068  7823.090  0.500  4.439671  132.034  1.557972  0.036017
  7838.770  7838.790  0.500  4.413406  131.056  1.587589  0.037386
  7854.645  7854.660  0.500  4.387442  129.785  1.613553  0.038939
  7870.688  7870.710  0.500  4.360893  129.983  1.659490  0.041087
  7886.907  7886.920  0.500  4.334760  129.285  1.694285  0.042822
  7903.295  7903.310  0.500  4.308470  128.529  1.729249  0.044684
  7919.854  7919.870  0.500  4.282022  127.77  1.765104  0.046691
  7936.572  7936.600  0.500  4.255813  126.795  1.798151  0.048647
  7953.474  7953.500  0.500  4.229761  126.123  1.835835  0.050543
  7964.827  7964.860  0.500  4.212215  125.542  1.859713  0.051791