File: xdidata/Fe/Fe-Vesuvianite.xdi
# XDI/1.0 BlueSky/1.10.0 BMM/2023-1.0-py310-tiled
# Beamline.name: BMM (06BM) -- Beamline for Materials Measurement (NIST)
# Beamline.xray_source: NSLS-II three-pole wiggler
# Beamline.collimation: paraboloid mirror, 5 nm Rh on 30 nm Pt
# Beamline.focusing: not in use
# Beamline.harmonic_rejection: flat mirror, Si stripe, pitch = 7.0 mrad relative to beam
# Beamline.software: Bluesky 1.10.0, Ophyd 1.7.0, DataBroker 2.0.0b13, Python 3.10.8, 2023-1.0-py310-tiled
# Detector.I0: 10 cm N2
# Detector.I1: 25 cm N2
# Detector.I2: 25 cm N2
# Element.symbol: Fe
# Element.edge: K
# Element.reference: Fe
# Element.reference_material: Fe foil
# Facility.name: NSLS-II
# Facility.energy: 3.0
# Facility.current: 400.5
# Facility.mode: top-off
# Facility.GUP: 123456
# Facility.SAF: 301027
# Facility.cycle: 2023-2
# Mono.name: Si(111)
# Mono.d_spacing: 3.13519
# Mono.encoder_resolution: 0.0000050 deg/ct
# Mono.angle_offset: 16.0754 deg
# Mono.scan_mode: pseudo channel cut
# Mono.scan_type: step
# Mono.direction: forward in energy
# Sample.name: Ca10(Mg,Fe)Al4(Si2O7)2(SiO4)4(OH)4
# Sample.prep: PEG pellet
# Sample.x: 142.329 mm
# Sample.y: 114.126 mm
# Sample.SDD_position: 205.000 mm
# Scan.experimenters: Bruce Ravel
# Scan.edge_energy: 7112.0
# Scan.start_time: 2023-05-05T21:14:38
# Scan.end_time: 2023-05-05T21:23:24
# Scan.transient_id: 74646
# Scan.uid: 0f1055d8-354b-4513-905f-9a6c776ac77b
# Scan.plot_hint: ln(I0/It)  --  ln($5/$6)
# Column.1: energy eV
# Column.2: requested_energy eV
# Column.3: measurement_time seconds
# Column.4: xmu
# Column.5: I0 nA
# Column.6: It nA
# Column.7: Ir nA
# ///////////
# courtesy Martin Stennett, University of Sheffield
# -----------
# energy  requested_energy  measurement_time  xmu  I0  It  Ir
  6911.999  6912.000  0.500  2.171947  155.234  17.6898  3.317986
  6942.011  6942.000  0.500  2.141232  155.033  18.2179  3.490371
  6972.018  6972.000  0.500  2.110654  154.989  18.7783  3.672633
  7002.023  7002.000  0.500  2.081186  154.893  19.3279  3.857538
  7032.020  7032.000  0.500  2.051656  154.705  19.8829  4.046888
  7062.014  7062.000  0.500  2.022833  153.78  20.3421  4.214478
  7084.004  7084.000  0.500  2.002475  154.009  20.7913  4.345541
  7090.005  7090.000  0.500  1.996739  154.124  20.9265  4.375809
  7096.001  7096.000  0.500  1.991113  154.063  21.0363  4.389318
  7101.997  7102.000  0.500  1.985665  153.981  21.1399  4.372159
  7102.897  7102.900  0.500  1.984823  153.98  21.1576  4.364830
  7103.781  7103.800  0.500  1.984035  153.978  21.174  4.353744
  7104.694  7104.700  0.500  1.983301  153.951  21.1859  4.339684
  7105.597  7105.600  0.500  1.982427  153.949  21.2042  4.319716
  7106.520  7106.500  0.500  1.981668  153.919  21.2161  4.290934
  7107.426  7107.400  0.500  1.981141  153.89  21.2233  4.249918
  7108.304  7108.300  0.500  1.980326  153.819  21.2307  4.188999
  7109.195  7109.200  0.500  1.979447  153.829  21.2507  4.090237
  7110.103  7110.100  0.500  1.978782  153.754  21.2546  3.864829
  7110.999  7111.000  0.500  1.978466  153.697  21.2534  3.278712
  7111.898  7111.900  0.500  1.978476  153.633  21.2443  2.375796
  7112.790  7112.800  0.500  1.979534  153.546  21.2098  1.852270
  7113.699  7113.700  0.500  1.981188  153.484  21.1663  1.574002
  7114.607  7114.600  0.500  1.980629  153.465  21.1754  1.382922
  7115.500  7115.500  0.500  1.977969  153.467  21.2321  1.295045
  7116.395  7116.400  0.500  1.977358  153.426  21.2394  1.255882
  7117.297  7117.300  0.500  1.980662  153.395  21.1651  1.171351
  7118.201  7118.200  0.500  1.984367  153.864  21.1513  0.990610
  7119.104  7119.100  0.500  1.988252  153.843  21.0664  0.781811
  7119.995  7120.000  0.500  1.993508  153.765  20.9453  0.610597
  7120.896  7120.900  0.500  1.997653  153.737  20.8549  0.466811
  7121.803  7121.800  0.500  2.003011  153.694  20.7377  0.368649
  7122.702  7122.700  0.500  2.009529  153.646  20.5965  0.307468
  7123.604  7123.600  0.500  2.020209  153.597  20.3713  0.265030
  7124.497  7124.500  0.500  2.031289  153.545  20.14  0.235196
  7125.399  7125.400  0.500  2.041697  153.491  19.9243  0.210708
  7126.301  7126.300  0.500  2.056170  153.429  19.6302  0.189488
  7127.201  7127.200  0.500  2.076170  153.35  19.2316  0.167024
  7128.106  7128.100  0.500  2.095012  153.27  18.8627  0.144015
  7128.996  7129.000  0.500  2.110959  153.22  18.5583  0.122226
  7129.901  7129.900  0.500  2.119004  153.113  18.3967  0.104665
  7130.800  7130.800  0.500  2.116401  153.001  18.4312  0.096209
  7131.706  7131.700  0.500  2.108538  152.932  18.5683  0.097967
  7132.607  7132.600  0.500  2.102843  152.869  18.6666  0.108987
  7133.496  7133.500  0.500  2.101427  152.84  18.6895  0.123838
  7134.405  7134.400  0.500  2.101932  152.807  18.6761  0.139190
  7135.305  7135.300  0.500  2.101435  152.772  18.6811  0.150509
  7136.199  7136.200  0.500  2.098079  152.746  18.7407  0.157843
  7137.002  7137.000  0.500  2.094141  152.694  18.8083  0.160311
  7140.023  7140.010  0.500  2.084967  152.636  18.9743  0.144714
  7143.214  7143.200  0.500  2.074970  152.604  19.161  0.142683
  7146.554  7146.560  0.500  2.062301  152.52  19.3946  0.140762
  7150.070  7150.080  0.500  2.049371  152.481  19.6419  0.119037
  7153.779  7153.780  0.500  2.037618  152.432  19.8678  0.113228
  7157.650  7157.650  0.500  2.028675  152.368  20.0379  0.119232
  7161.709  7161.700  0.500  2.023229  152.276  20.1351  0.121606
  7165.913  7165.910  0.500  2.022598  152.127  20.1281  0.128240
  7170.294  7170.290  0.500  2.026140  152.021  20.043  0.133096
  7174.856  7174.850  0.500  2.032120  151.932  19.9118  0.150078
  7179.594  7179.580  0.500  2.031236  151.852  19.919  0.173201
  7184.496  7184.480  0.500  2.025658  151.762  20.0184  0.170417
  7189.555  7189.550  0.500  2.020761  151.647  20.1015  0.148151
  7194.796  7194.790  0.500  2.016518  151.453  20.1611  0.129274
  7200.224  7200.210  0.500  2.011427  151.349  20.2501  0.148875
  7205.801  7205.790  0.500  2.004060  151.207  20.3807  0.187813
  7211.557  7211.550  0.500  1.995915  151.043  20.5252  0.170767
  7217.491  7217.480  0.500  1.988961  150.881  20.6461  0.104152
  7223.590  7223.580  0.500  1.982444  150.704  20.7569  0.099058
  7229.858  7229.850  0.500  1.975882  150.747  20.8994  0.150741
  7236.303  7236.290  0.500  1.969800  150.592  21.0054  0.212294
  7242.914  7242.900  0.500  1.965113  150.491  21.0898  0.211874
  7249.699  7249.690  0.500  1.961371  150.218  21.1304  0.188603
  7256.664  7256.650  0.500  1.956620  150.212  21.2303  0.201360
  7263.784  7263.770  0.500  1.949617  139.407  19.8416  0.176312
  7271.079  7271.070  0.500  1.944936  150.836  21.5689  0.173856
  7278.562  7278.550  0.500  1.938075  150.818  21.7149  0.157610
  7286.198  7286.190  0.500  1.931062  150.364  21.8018  0.142920
  7294.012  7294.000  0.500  1.922787  150.384  21.986  0.159607
  7302.006  7301.990  0.500  1.915305  148.473  21.8696  0.207237
  7310.168  7310.150  0.500  1.907892  150.187  22.2867  0.234102
  7318.481  7318.470  0.500  1.899901  149.982  22.4348  0.236307
  7326.983  7326.970  0.500  1.892317  149.781  22.5753  0.240155
  7335.667  7335.650  0.500  1.884954  149.595  22.7139  0.252932
  7344.504  7344.490  0.500  1.877511  149.383  22.8512  0.246258
  7353.512  7353.500  0.500  1.870164  149.192  22.9902  0.211323
  7362.698  7362.690  0.500  1.862565  148.97  23.1311  0.190824
  7372.063  7372.050  0.500  1.854615  148.777  23.2855  0.200663
  7381.588  7381.570  0.500  1.846830  148.535  23.4294  0.265264
  7391.279  7391.270  0.500  1.838560  148.296  23.5859  0.293642
  7401.153  7401.150  0.500  1.830120  148.053  23.7469  0.286404
  7411.198  7411.190  0.500  1.821502  147.799  23.9113  0.288708
  7421.404  7421.400  0.500  1.812866  147.503  24.0704  0.294776
  7431.800  7431.790  0.500  1.803811  147.206  24.2405  0.308403
  7442.359  7442.350  0.500  1.795016  146.828  24.3918  0.295729
  7453.088  7453.080  0.500  1.786299  145.417  24.3689  0.278277
  7463.992  7463.980  0.500  1.777692  146.344  24.7362  0.289203
  7475.055  7475.050  0.500  1.768749  146.146  24.9246  0.319488
  7486.303  7486.290  0.500  1.759905  145.778  25.0827  0.345655
  7497.724  7497.710  0.500  1.751037  145.449  25.249  0.367040
  7509.307  7509.290  0.500  1.741789  145.04  25.412  0.365236
  7521.071  7521.050  0.500  1.732609  144.69  25.5845  0.374826
  7532.997  7532.980  0.500  1.723334  144.305  25.7541  0.377838
  7545.093  7545.080  0.500  1.713956  143.855  25.9157  0.387261
  7557.365  7557.350  0.500  1.704324  143.435  26.0901  0.388571
  7569.826  7569.790  0.500  1.694739  142.995  26.2606  0.390271
  7582.442  7582.410  0.500  1.685135  142.523  26.4266  0.418876
  7595.221  7595.190  0.500  1.675678  141.927  26.5661  0.436148
  7608.177  7608.150  0.500  1.665623  140.885  26.6376  0.445425
  7621.297  7621.280  0.500  1.656219  140.707  26.8552  0.460354
  7634.601  7634.580  0.500  1.646143  140.456  27.0788  0.470750
  7648.062  7648.050  0.500  1.636612  139.966  27.2427  0.491761
  7661.698  7661.700  0.500  1.626556  139.445  27.4157  0.502910
  7675.538  7675.510  0.500  1.616175  138.889  27.5913  0.506037
  7689.485  7689.500  0.500  1.606030  138.526  27.7998  0.516015
  7703.680  7703.660  0.500  1.596178  137.785  27.9249  0.534448
  7718.005  7717.990  0.500  1.585583  137.178  28.0979  0.555518
  7732.478  7732.490  0.500  1.575142  136.674  28.2885  0.572642
  7747.173  7747.160  0.500  1.564555  136.156  28.4813  0.587713
  7762.008  7762.000  0.500  1.553767  135.504  28.6524  0.603959
  7777.036  7777.020  0.500  1.543756  135.307  28.8985  0.626785
  7792.177  7792.200  0.500  1.533615  134.706  29.0634  0.644262
  7807.548  7807.560  0.500  1.522381  134.055  29.2496  0.658690
  7823.091  7823.090  0.500  1.511746  133.404  29.4189  0.673713
  7838.780  7838.790  0.500  1.501156  132.45  29.5194  0.688525
  7854.640  7854.660  0.500  1.490551  131.154  29.5422  0.704454
  7870.685  7870.710  0.500  1.479870  131.395  29.9143  0.731542
  7886.897  7886.920  0.500  1.469099  130.728  30.0849  0.754664
  7903.319  7903.310  0.500  1.457968  129.982  30.2479  0.776762
  7919.852  7919.870  0.500  1.447003  129.242  30.4072  0.797732
  7936.583  7936.600  0.500  1.436246  128.246  30.4994  0.817014
  7953.474  7953.500  0.500  1.425394  127.566  30.6687  0.835992
  7964.832  7964.860  0.500  1.417759  126.973  30.7599  0.849359