File: xdidata/Fe/Fe-ZnFerrite.xdi
# XDI/1.0 BlueSky/1.10.0 BMM/2023-1.0-py310-tiled
# Beamline.name: BMM (06BM) -- Beamline for Materials Measurement (NIST)
# Beamline.xray_source: NSLS-II three-pole wiggler
# Beamline.collimation: paraboloid mirror, 5 nm Rh on 30 nm Pt
# Beamline.focusing: not in use
# Beamline.harmonic_rejection: flat mirror, Si stripe, pitch = 7.0 mrad relative to beam
# Beamline.software: Bluesky 1.10.0, Ophyd 1.7.0, DataBroker 2.0.0b13, Python 3.10.8, 2023-1.0-py310-tiled
# Detector.I0: 10 cm N2
# Detector.I1: 25 cm N2
# Detector.I2: 25 cm N2
# Element.symbol: Fe
# Element.edge: K
# Element.reference: Fe
# Element.reference_material: Fe foil
# Facility.name: NSLS-II
# Facility.energy: 3.0
# Facility.current: 400.2
# Facility.mode: top-off
# Facility.GUP: 123456
# Facility.SAF: 301027
# Facility.cycle: 2023-2
# Mono.name: Si(111)
# Mono.d_spacing: 3.13519
# Mono.encoder_resolution: 0.0000050 deg/ct
# Mono.angle_offset: 16.0754 deg
# Mono.scan_mode: pseudo channel cut
# Mono.scan_type: step
# Mono.direction: forward in energy
# Sample.name: ZnFe2O4
# Sample.prep: PEG pellet
# Sample.x: 116.329 mm
# Sample.y: 114.126 mm
# Sample.SDD_position: 205.000 mm
# Scan.experimenters: Bruce Ravel
# Scan.edge_energy: 7112.0
# Scan.start_time: 2023-05-05T17:57:09
# Scan.end_time: 2023-05-05T18:05:18
# Scan.transient_id: 74536
# Scan.uid: 80fc001b-9195-4483-97c3-cb5da880062f
# Scan.plot_hint: ln(I0/It)  --  ln($5/$6)
# Column.1: energy eV
# Column.2: requested_energy eV
# Column.3: measurement_time seconds
# Column.4: xmu
# Column.5: I0 nA
# Column.6: It nA
# Column.7: Ir nA
# ///////////
# courtesy Martin Stennett, University of Sheffield
# -----------
# energy  requested_energy  measurement_time  xmu  I0  It  Ir
  6912.003  6912.000  0.500  2.337933  154.472  14.9107  2.798244
  6942.009  6942.000  0.500  2.300169  154.275  15.4649  2.964476
  6972.012  6972.000  0.500  2.262646  154.23  16.0514  3.142053
  7002.019  7002.000  0.500  2.225877  154.089  16.6374  3.322900
  7032.016  7032.000  0.500  2.190245  153.931  17.2233  3.508448
  7062.010  7062.000  0.500  2.155408  152.99  17.7248  3.674420
  7083.991  7084.000  0.500  2.132205  153.178  18.1632  3.799702
  7089.992  7090.000  0.500  2.126638  153.317  18.2811  3.825133
  7096.116  7096.000  0.500  2.122173  153.218  18.3511  3.831476
  7101.995  7102.000  0.500  2.119109  153.133  18.3972  3.808010
  7102.889  7102.900  0.500  2.118852  153.074  18.3948  3.798829
  7103.781  7103.800  0.500  2.118917  153.066  18.3926  3.785669
  7104.690  7104.700  0.500  2.118954  153.007  18.3848  3.768405
  7105.582  7105.600  0.500  2.119299  152.992  18.3768  3.746360
  7106.490  7106.500  0.500  2.119239  152.961  18.3741  3.719902
  7107.387  7107.400  0.500  2.120008  152.93  18.3563  3.680105
  7108.289  7108.300  0.500  2.120698  152.887  18.3384  3.621883
  7109.193  7109.200  0.500  2.122034  152.882  18.3134  3.524139
  7110.093  7110.100  0.500  2.124502  152.823  18.2612  3.319439
  7110.999  7111.000  0.500  2.129120  152.751  18.1685  2.786862
  7111.893  7111.900  0.500  2.140181  152.686  17.961  1.996115
  7112.788  7112.800  0.500  2.171075  152.606  17.4055  1.517330
  7113.699  7113.700  0.500  2.187454  152.516  17.1126  1.271615
  7114.598  7114.600  0.500  2.188711  152.942  17.1389  1.122053
  7115.500  7115.500  0.500  2.177498  152.933  17.3311  1.060963
  7116.395  7116.400  0.500  2.183596  152.93  17.2254  1.022213
  7117.295  7117.300  0.500  2.199219  152.855  16.95  0.939812
  7118.205  7118.200  0.500  2.219636  152.819  16.6036  0.776001
  7119.104  7119.100  0.500  2.250007  152.76  16.1007  0.597497
  7120.000  7120.000  0.500  2.304107  152.677  15.2445  0.444473
  7120.898  7120.900  0.500  2.394415  152.603  13.9214  0.312284
  7121.797  7121.800  0.500  2.518094  152.525  12.2955  0.220086
  7122.702  7122.700  0.500  2.682005  152.485  10.4339  0.156811
  7123.606  7123.600  0.500  2.864279  152.416  8.691417  0.114101
  7124.495  7124.500  0.500  3.053250  152.313  7.189957  0.084785
  7125.399  7125.400  0.500  3.294602  152.261  5.646250  0.060505
  7126.297  7126.300  0.500  3.561852  152.186  4.319990  0.042188
  7127.201  7127.200  0.500  3.799646  152.092  3.403610  0.030025
  7128.104  7128.100  0.500  3.953014  151.988  2.917683  0.022615
  7128.994  7129.000  0.500  4.065139  151.95  2.607558  0.017659
  7129.901  7129.900  0.500  4.235448  151.809  2.197184  0.012937
  7130.804  7130.800  0.500  4.497839  151.727  1.689182  0.009334
  7131.701  7131.700  0.500  4.770839  151.625  1.284761  0.007156
  7132.603  7132.600  0.500  4.853066  151.619  1.183294  0.007371
  7133.496  7133.500  0.500  4.691036  151.6  1.391259  0.009748
  7134.396  7134.400  0.500  4.438201  151.587  1.791330  0.013755
  7135.305  7135.300  0.500  4.244349  151.569  2.174262  0.018007
  7136.199  7136.200  0.500  4.149527  151.558  2.390350  0.020593
  7136.989  7137.000  0.500  4.130439  151.543  2.436180  0.021286
  7140.019  7140.010  0.500  4.135872  151.469  2.421797  0.018980
  7143.192  7143.200  0.500  3.896335  151.469  3.077272  0.023496
  7146.559  7146.560  0.500  3.986537  151.427  2.811080  0.020782
  7150.080  7150.080  0.500  3.745199  151.369  3.576996  0.022189
  7153.786  7153.780  0.500  3.603306  151.304  4.120544  0.023964
  7157.652  7157.650  0.500  3.504621  151.225  4.545553  0.027544
  7161.698  7161.700  0.500  3.457627  151.131  4.761299  0.029261
  7165.915  7165.910  0.500  3.514797  150.943  4.491134  0.029193
  7170.290  7170.290  0.500  3.642041  150.806  3.950945  0.026938
  7174.858  7174.850  0.500  3.784194  150.701  3.425005  0.026415
  7179.587  7179.580  0.500  3.863938  150.573  3.159812  0.028091
  7184.485  7184.480  0.500  3.923867  150.49  2.974363  0.025848
  7189.555  7189.550  0.500  3.869523  150.373  3.138036  0.023619
  7194.796  7194.790  0.500  3.788949  150.146  3.396198  0.022226
  7200.222  7200.210  0.500  3.717033  150.021  3.646418  0.027401
  7205.803  7205.790  0.500  3.672395  149.91  3.810034  0.035846
  7211.560  7211.550  0.500  3.664866  149.737  3.834411  0.032337
  7217.491  7217.480  0.500  3.648098  149.548  3.894334  0.019989
  7223.586  7223.580  0.500  3.659806  149.39  3.844922  0.018929
  7229.862  7229.850  0.500  3.678634  150.041  3.789641  0.028020
  7236.299  7236.290  0.500  3.644710  149.853  3.915499  0.040367
  7242.908  7242.900  0.500  3.569837  149.774  4.217716  0.042992
  7249.699  7249.690  0.500  3.542218  149.506  4.328069  0.039337
  7256.664  7256.650  0.500  3.600514  149.457  4.081623  0.039308
  7263.784  7263.770  0.500  3.655685  137.053  3.541958  0.031968
  7271.083  7271.070  0.500  3.664551  149.564  3.831193  0.031255
  7278.562  7278.550  0.500  3.661951  149.626  3.842742  0.028313
  7286.198  7286.190  0.500  3.630392  149.204  3.954781  0.026306
  7294.009  7294.000  0.500  3.563090  149.213  4.230360  0.031331
  7301.999  7301.990  0.500  3.500927  147.457  4.448694  0.042939
  7310.161  7310.150  0.500  3.464256  148.987  4.662731  0.049622
  7318.486  7318.470  0.500  3.481462  148.83  4.578371  0.048846
  7326.987  7326.970  0.500  3.506556  148.66  4.459796  0.048116
  7335.656  7335.650  0.500  3.497635  148.454  4.493545  0.050723
  7344.504  7344.490  0.500  3.480735  148.225  4.563059  0.049737
  7353.515  7353.500  0.500  3.460008  148.033  4.652618  0.043225
  7362.703  7362.690  0.500  3.431267  147.81  4.781067  0.040055
  7372.063  7372.050  0.500  3.424272  147.602  4.807829  0.042112
  7381.579  7381.570  0.500  3.404006  147.401  4.899596  0.056044
  7391.277  7391.270  0.500  3.391514  147.19  4.954079  0.062421
  7401.162  7401.150  0.500  3.381418  146.96  4.996511  0.060891
  7411.201  7411.190  0.500  3.367239  146.747  5.060520  0.061861
  7421.406  7421.400  0.500  3.351607  146.436  5.129359  0.063658
  7431.802  7431.790  0.500  3.317332  146.165  5.298396  0.068106
  7442.352  7442.350  0.500  3.294896  145.82  5.405818  0.066252
  7453.093  7453.080  0.500  3.288073  144.486  5.393036  0.062337
  7463.990  7463.980  0.500  3.262092  145.308  5.566491  0.065784
  7475.060  7475.050  0.500  3.246454  145.099  5.646091  0.073073
  7486.305  7486.290  0.500  3.242179  144.705  5.654893  0.078695
  7497.729  7497.710  0.500  3.234156  144.359  5.686793  0.083414
  7509.304  7509.290  0.500  3.218661  143.967  5.759931  0.083775
  7521.066  7521.050  0.500  3.191530  143.6  5.903246  0.087463
  7532.999  7532.980  0.500  3.170310  143.186  6.012449  0.089236
  7545.102  7545.080  0.500  3.150539  142.778  6.115044  0.092257
  7557.336  7557.350  0.500  3.126497  142.369  6.245918  0.093922
  7569.787  7569.790  0.500  3.110811  141.906  6.324003  0.094893
  7582.402  7582.410  0.500  3.099992  141.425  6.371146  0.101799
  7595.189  7595.190  0.500  3.088552  140.787  6.415346  0.106233
  7608.147  7608.150  0.500  3.068234  139.748  6.498708  0.109536
  7621.270  7621.280  0.500  3.046120  139.568  6.635486  0.114883
  7634.573  7634.580  0.500  3.027036  139.299  6.750296  0.118366
  7648.070  7648.050  0.500  3.008635  138.785  6.850310  0.124695
  7661.693  7661.700  0.500  2.990543  138.233  6.947596  0.128530
  7675.493  7675.510  0.500  2.975738  137.64  7.020969  0.129690
  7689.478  7689.500  0.500  2.961587  137.303  7.103620  0.132940
  7703.680  7703.660  0.500  2.941499  136.47  7.203765  0.138996
  7717.993  7717.990  0.500  2.920269  136.344  7.351566  0.146572
  7732.511  7732.490  0.500  2.900088  135.744  7.468428  0.152253
  7747.147  7747.160  0.500  2.880583  135.22  7.586096  0.157833
  7762.026  7762.000  0.500  2.862975  134.609  7.685999  0.163315
  7777.039  7777.020  0.500  2.845410  134.006  7.787152  0.170188
  7792.213  7792.200  0.500  2.829349  133.392  7.876967  0.175885
  7807.592  7807.560  0.500  2.812426  132.816  7.976815  0.181024
  7823.120  7823.090  0.500  2.792855  132.126  8.092204  0.186817
  7838.778  7838.790  0.500  2.773291  131.191  8.193688  0.192511
  7854.643  7854.660  0.500  2.753891  129.931  8.273978  0.198668
  7870.696  7870.710  0.500  2.735330  130.117  8.441014  0.208107
  7886.897  7886.920  0.500  2.716172  129.443  8.559746  0.216005
  7903.292  7903.310  0.500  2.697896  128.698  8.667443  0.223935
  7919.860  7919.870  0.500  2.680541  127.991  8.770692  0.231830
  7936.583  7936.600  0.500  2.663438  126.995  8.852603  0.238904
  7953.474  7953.500  0.500  2.643812  126.292  8.978066  0.246351
  7964.837  7964.860  0.500  2.631448  125.807  9.054838  0.251774