File: xdidata/Data/Au/Au-L3-GoldFoil.xdi
# XDI/1.0 BlueSky/1.10.0 BMM/2023-1.0-py310-tiled
# Beamline.name: BMM (06BM) -- Beamline for Materials Measurement (NIST)
# Beamline.xray_source: NSLS-II three-pole wiggler
# Beamline.collimation: paraboloid mirror, 5 nm Rh on 30 nm Pt
# Beamline.focusing: not in use
# Beamline.harmonic_rejection: flat mirror, Pt stripe, pitch = 7.0 mrad relative to beam
# Beamline.software: Bluesky 1.10.0, Ophyd 1.7.0, DataBroker 2.0.0b13, Python 3.10.8, 2023-1.0-py310-tiled
# Detector.I0: 10 cm N2
# Detector.I1: 25 cm N2
# Detector.I2: 25 cm N2
# Element.symbol: Au
# Element.edge: L3
# Element.reference: Au
# Element.reference_material: Au foil
# Facility.name: NSLS-II
# Facility.energy: 3.0
# Facility.current: 399.4
# Facility.mode: top-off
# Facility.GUP: 301027
# Facility.SAF: 310583
# Facility.cycle: 2023-2
# Mono.name: Si(111)
# Mono.d_spacing: 3.13519
# Mono.encoder_resolution: 0.0000050 deg/ct
# Mono.angle_offset: 16.0754 deg
# Mono.scan_mode: pseudo channel cut
# Mono.scan_type: step
# Mono.direction: forward in energy
# Sample.name: Au foil
# Sample.prep: reference foil
# Sample.x: 109.138 mm
# Sample.y: 153.150 mm
# Sample.SDD_position: 205.000 mm
# Scan.experimenters: Bruce Ravel
# Scan.edge_energy: 11918.7
# Scan.start_time: 2023-05-28T19:30:02
# Scan.end_time: 2023-05-28T19:38:16
# Scan.transient_id: 78952
# Scan.uid: 448e41d8-d49b-4999-a03e-3ee0f38b68c3
# Scan.plot_hint: ln(It/Ir)  --  ln($6/$7)
# Column.1: energy eV
# Column.2: requested_energy eV
# Column.3: measurement_time seconds
# Column.4: xmu
# Column.5: I0 nA
# Column.6: It nA
# Column.7: Ir nA
# ///////////
# standard reference foil
# -----------
# energy  requested_energy  measurement_time  xmu  I0  It  Ir
  11718.696  11718.700  0.500  0.505607  64.0026  107.544  64.8642
  11748.794  11748.700  0.500  0.501827  63.5603  106.924  64.734
  11778.716  11778.700  0.500  0.498241  63.2429  106.501  64.7097
  11808.733  11808.700  0.500  0.494771  62.9463  106.135  64.7117
  11838.784  11838.700  0.500  0.491472  62.5599  105.598  64.5972
  11868.738  11868.700  0.500  0.488799  62.1592  105.037  64.426
  11890.670  11890.700  0.500  0.488414  61.8647  104.621  64.1956
  11896.654  11896.700  0.500  0.489258  61.7462  104.449  64.0359
  11902.663  11902.700  0.500  0.491091  61.184  103.509  63.3433
  11908.665  11908.700  0.500  0.495566  61.6013  104.242  63.5071
  11909.554  11909.600  0.500  0.496698  61.5858  104.215  63.4188
  11910.449  11910.500  0.500  0.498048  61.5704  104.198  63.3228
  11911.357  11911.400  0.500  0.499728  61.567  104.191  63.2122
  11912.258  11912.300  0.500  0.501600  61.5297  104.14  63.0631
  11913.154  11913.200  0.500  0.503942  61.5155  104.116  62.9012
  11914.062  11914.100  0.500  0.506904  61.4911  104.08  62.6934
  11914.976  11915.000  0.500  0.510862  61.4403  104.005  62.4006
  11915.878  11915.900  0.500  0.515902  61.2225  103.628  61.8621
  11916.799  11916.800  0.500  0.522722  60.8391  102.991  61.0637
  11917.695  11917.700  0.500  0.531977  60.8742  103.051  60.5363
  11918.598  11918.600  0.500  0.544587  61.1897  103.579  60.0843
  11919.501  11919.500  0.500  0.561703  61.3694  103.889  59.2411
  11920.391  11920.400  0.500  0.584625  61.3896  103.934  57.924
  11921.269  11921.300  0.500  0.611593  61.3865  103.936  56.3838
  11922.179  11922.200  0.500  0.638804  61.3719  103.913  54.8582
  11923.082  11923.100  0.500  0.660683  61.3542  103.882  53.655
  11923.998  11924.000  0.500  0.675340  61.3434  103.867  52.8666
  11924.895  11924.900  0.500  0.683666  61.3245  103.843  52.4163
  11925.799  11925.800  0.500  0.687824  61.3133  103.821  52.1876
  11926.709  11926.700  0.500  0.688802  61.2972  103.804  52.1282
  11927.594  11927.600  0.500  0.688661  61.2846  103.781  52.1236
  11928.486  11928.500  0.500  0.688862  61.2712  103.762  52.1037
  11929.384  11929.400  0.500  0.690309  61.2516  103.727  52.0111
  11930.301  11930.300  0.500  0.693255  61.2443  103.718  51.8536
  11931.199  11931.200  0.500  0.697215  61.2154  103.682  51.6307
  11932.104  11932.100  0.500  0.701720  61.1951  103.635  51.3753
  11933.008  11933.000  0.500  0.706239  61.1433  103.558  51.1053
  11933.907  11933.900  0.500  0.710080  60.8167  103.007  50.6389
  11934.787  11934.800  0.500  0.712740  60.4834  102.444  50.228
  11935.686  11935.700  0.500  0.714576  60.6327  102.7  50.2613
  11936.598  11936.600  0.500  0.715548  60.9466  103.239  50.476
  11937.485  11937.500  0.500  0.716346  61.0451  103.405  50.5167
  11938.403  11938.400  0.500  0.717269  61.046  103.425  50.48
  11939.309  11939.300  0.500  0.718734  61.0468  103.425  50.4062
  11940.208  11940.200  0.500  0.720537  61.0368  103.404  50.3053
  11941.096  11941.100  0.500  0.722082  61.0155  103.381  50.2165
  11941.996  11942.000  0.500  0.723685  61.0088  103.375  50.1327
  11942.896  11942.900  0.500  0.726086  60.9908  103.347  49.999
  11943.684  11943.700  0.500  0.729736  60.9712  103.319  49.8034
  11946.709  11946.710  0.500  0.754610  60.9254  103.241  48.5433
  11949.915  11949.900  0.500  0.757198  60.9015  103.204  48.4005
  11953.285  11953.260  0.500  0.740178  60.8424  103.127  49.1943
  11956.775  11956.780  0.500  0.735880  60.8053  103.069  49.3786
  11960.485  11960.480  0.500  0.732241  60.9161  103.268  49.6545
  11964.353  11964.350  0.500  0.740043  60.8754  103.213  49.2425
  11968.410  11968.400  0.500  0.753229  60.8286  103.154  48.5694
  11972.614  11972.610  0.500  0.756711  60.7579  103.055  48.354
  11976.965  11976.990  0.500  0.748902  60.6958  102.967  48.6915
  11981.606  11981.550  0.500  0.742736  60.6318  102.863  48.9434
  11986.288  11986.280  0.500  0.738841  60.5469  102.739  49.0751
  11991.187  11991.180  0.500  0.732569  60.4659  102.624  49.3287
  11996.228  11996.250  0.500  0.731026  60.4023  102.53  49.3595
  12001.474  12001.490  0.500  0.734237  60.3384  102.447  49.1613
  12006.887  12006.910  0.500  0.740677  60.2789  102.359  48.8037
  12012.481  12012.490  0.500  0.741483  60.1847  102.23  48.7031
  12018.226  12018.250  0.500  0.737833  60.1213  102.138  48.8369
  12024.189  12024.180  0.500  0.735376  60.0282  102  48.8914
  12030.254  12030.280  0.500  0.734960  59.9568  101.893  48.8603
  12036.558  12036.550  0.500  0.733240  59.8612  101.75  48.8757
  12042.988  12042.990  0.500  0.729340  59.7502  101.59  48.9894
  12049.615  12049.600  0.500  0.726345  59.2538  100.762  48.7361
  12056.376  12056.390  0.500  0.726780  59.5728  101.336  48.9923
  12063.342  12063.350  0.500  0.728663  59.4698  101.189  48.829
  12070.480  12070.470  0.500  0.729470  59.3719  101.04  48.7179
  12077.766  12077.770  0.500  0.729385  59.2796  100.907  48.6578
  12085.253  12085.250  0.500  0.728541  59.1746  100.756  48.6263
  12092.895  12092.890  0.500  0.728405  58.9866  100.46  48.4899
  12100.719  12100.700  0.500  0.726583  58.9783  100.472  48.5839
  12108.687  12108.690  0.500  0.722135  58.8661  100.303  48.7187
  12116.852  12116.850  0.500  0.719783  58.7617  100.159  48.7634
  12125.181  12125.170  0.500  0.718913  58.6454  99.9764  48.7167
  12133.695  12133.670  0.500  0.719377  58.5467  99.8583  48.6365
  12142.362  12142.350  0.500  0.721280  58.4225  99.6682  48.4517
  12151.203  12151.190  0.500  0.722594  58.3077  99.5073  48.3099
  12160.198  12160.200  0.500  0.720392  58.1717  99.2999  48.3155
  12169.394  12169.390  0.500  0.715980  58.0602  99.1423  48.4521
  12178.759  12178.750  0.500  0.712461  57.9303  98.9391  48.5233
  12188.281  12188.270  0.500  0.711777  57.8038  98.7528  48.4651
  12197.967  12197.970  0.500  0.710658  57.6671  98.5537  48.4215
  12207.844  12207.850  0.500  0.709837  57.5393  98.3802  48.3759
  12217.893  12217.890  0.500  0.710584  57.4159  98.1846  48.2437
  12228.116  12228.100  0.500  0.710498  57.2827  98.0055  48.1598
  12238.505  12238.490  0.500  0.707417  57.0227  97.5934  48.1053
  12249.070  12249.050  0.500  0.703759  56.9726  97.536  48.2533
  12259.784  12259.780  0.500  0.702042  56.8246  97.3078  48.2231
  12270.687  12270.680  0.500  0.700911  56.5144  96.8185  48.0349
  12281.761  12281.750  0.500  0.699270  56.5283  96.8713  48.14
  12292.987  12292.990  0.500  0.698633  56.269  96.46  47.9661
  12304.412  12304.410  0.500  0.698113  56.3969  96.7276  48.1243
  12315.998  12315.990  0.500  0.696721  56.2501  96.4922  48.074
  12327.764  12327.750  0.500  0.694345  56.0663  96.2297  48.0573
  12339.692  12339.680  0.500  0.691054  55.9359  96.0273  48.1143
  12351.777  12351.780  0.500  0.689168  55.7858  95.8037  48.0929
  12364.079  12364.050  0.500  0.688144  55.4961  95.3439  47.9111
  12376.512  12376.490  0.500  0.687133  55.469  95.3359  47.9555
  12389.118  12389.110  0.500  0.685804  55.319  95.1127  47.9068
  12401.904  12401.890  0.500  0.684119  55.15  94.856  47.8581
  12414.858  12414.850  0.500  0.681927  54.9642  94.5725  47.8198
  12428.028  12427.980  0.500  0.679512  54.7872  94.3103  47.8025
  12441.300  12441.280  0.500  0.677155  54.6417  94.1095  47.8133
  12454.764  12454.750  0.500  0.675122  54.4479  93.8004  47.7532
  12468.433  12468.400  0.500  0.673665  54.1811  93.3827  47.6099
  12482.254  12482.210  0.500  0.672222  54.0689  93.2201  47.5956
  12496.236  12496.200  0.500  0.670586  53.928  93.0207  47.5716
  12510.407  12510.360  0.500  0.668620  53.7359  92.7265  47.5145
  12524.719  12524.690  0.500  0.666193  53.553  92.4479  47.4868
  12539.230  12539.190  0.500  0.663870  53.089  91.6899  47.207
  12553.925  12553.860  0.500  0.661539  53.1809  91.8899  47.4204
  12568.738  12568.700  0.500  0.659450  52.9939  91.5995  47.3694
  12583.745  12583.720  0.500  0.657560  52.8013  91.3006  47.3041
  12598.934  12598.900  0.500  0.656099  52.6058  91.006  47.2204
  12614.292  12614.260  0.500  0.654119  52.4129  90.7105  47.1604
  12629.813  12629.790  0.500  0.651803  52.2109  90.4028  47.1094
  12645.547  12645.490  0.500  0.649350  52.0219  90.1106  47.0725
  12661.411  12661.360  0.500  0.647051  51.8167  89.7993  47.0178
  12677.442  12677.410  0.500  0.644735  51.6148  89.4935  46.9663
  12693.654  12693.620  0.500  0.642603  51.4042  89.1734  46.8982
  12710.064  12710.010  0.500  0.640584  51.1942  88.8456  46.8203
  12726.601  12726.570  0.500  0.638488  50.9794  88.5119  46.7423
  12743.380  12743.300  0.500  0.636354  50.7853  88.2141  46.6845
  12760.240  12760.200  0.500  0.634011  50.5663  87.8723  46.6127
  12771.623  12771.560  0.500  0.632422  50.4197  87.6456  46.5664