File: xdidata/V/V-V2O3.xdi
# XDI/1.0 BlueSky/1.10.0 BMM/2023-1.0-py310-tiled
# Beamline.name: BMM (06BM) -- Beamline for Materials Measurement (NIST)
# Beamline.xray_source: NSLS-II three-pole wiggler
# Beamline.collimation: paraboloid mirror, 5 nm Rh on 30 nm Pt
# Beamline.focusing: not in use
# Beamline.harmonic_rejection: flat mirror, Si stripe, pitch = 7.0 mrad relative to beam
# Beamline.software: Bluesky 1.10.0, Ophyd 1.7.0, DataBroker 2.0.0b13, Python 3.10.8, 2023-1.0-py310-tiled
# Detector.I0: 10 cm N2
# Detector.I1: 25 cm N2
# Detector.I2: 25 cm N2
# Element.symbol: V
# Element.edge: K
# Element.reference: V
# Element.reference_material: V foil
# Facility.name: NSLS-II
# Facility.energy: 3.0
# Facility.current: 399.6
# Facility.mode: top-off
# Facility.GUP: 123456
# Facility.SAF: 301027
# Facility.cycle: 2023-2
# Mono.name: Si(111)
# Mono.d_spacing: 3.13519
# Mono.encoder_resolution: 0.0000050 deg/ct
# Mono.angle_offset: 16.0754 deg
# Mono.scan_mode: pseudo channel cut
# Mono.scan_type: step
# Mono.direction: forward in energy
# Sample.name: V2O3
# Sample.prep: Powder in PEG pellet
# Sample.x: 116.329 mm
# Sample.y: 114.126 mm
# Sample.SDD_position: 205.000 mm
# Scan.experimenters: Bruce Ravel
# Scan.edge_energy: 5465.1
# Scan.start_time: 2023-05-06T09:27:35
# Scan.end_time: 2023-05-06T09:34:52
# Scan.transient_id: 74684
# Scan.uid: bc28412b-8b8f-4657-88c1-113d98efd6cd
# Scan.plot_hint: ln(I0/It)  --  ln($5/$6)
# Column.1: energy eV
# Column.2: requested_energy eV
# Column.3: measurement_time seconds
# Column.4: xmu
# Column.5: I0 nA
# Column.6: It nA
# Column.7: Ir nA
# ///////////
# Sigma Aldrich; Vanadium (III) oxide; 463744-5G; Lot 0000089530
# -----------
# energy  requested_energy  measurement_time  xmu  I0  It  Ir
  5265.106  5265.100  0.500  3.781689  98.8674  2.252613  0.348433
  5295.112  5295.100  0.500  3.708143  100.713  2.469794  0.394398
  5325.110  5325.100  0.500  3.634653  102.454  2.704078  0.445466
  5355.090  5355.100  0.500  3.562801  104.066  2.951251  0.501025
  5385.099  5385.100  0.500  3.494447  105.604  3.206707  0.560846
  5415.095  5415.100  0.500  3.426944  106.935  3.473901  0.624828
  5437.096  5437.100  0.500  3.378073  107.756  3.675907  0.674540
  5443.099  5443.100  0.500  3.366460  108.286  3.737110  0.689206
  5449.092  5449.100  0.500  3.354274  108.508  3.790689  0.701990
  5455.096  5455.100  0.500  3.343654  108.731  3.839043  0.712527
  5455.990  5456.000  0.500  3.342350  108.758  3.845015  0.714017
  5456.893  5456.900  0.500  3.340359  108.766  3.852941  0.715386
  5457.792  5457.800  0.500  3.339422  108.797  3.857673  0.715653
  5458.692  5458.700  0.500  3.338121  108.817  3.863390  0.716446
  5459.595  5459.600  0.500  3.336725  108.823  3.869021  0.716456
  5460.493  5460.500  0.500  3.336191  108.838  3.871618  0.715297
  5461.395  5461.400  0.500  3.336625  108.879  3.871370  0.712237
  5462.294  5462.300  0.500  3.336665  108.909  3.872285  0.706460
  5463.198  5463.200  0.500  3.336860  108.907  3.871471  0.690779
  5464.097  5464.100  0.500  3.341105  108.966  3.857148  0.623432
  5464.995  5465.000  0.500  3.355670  108.978  3.801817  0.514820
  5465.898  5465.900  0.500  3.371873  108.992  3.741183  0.532015
  5466.798  5466.800  0.500  3.409200  108.999  3.604354  0.509957
  5467.701  5467.700  0.500  3.431283  109.023  3.526399  0.474434
  5468.600  5468.600  0.500  3.469338  109.025  3.394771  0.432564
  5469.499  5469.500  0.500  3.496579  109.061  3.304643  0.405524
  5470.400  5470.400  0.500  3.471530  109.078  3.389003  0.409782
  5471.300  5471.300  0.500  3.454860  109.084  3.446145  0.414191
  5472.199  5472.200  0.500  3.462591  109.085  3.419645  0.401880
  5473.100  5473.100  0.500  3.489862  109.125  3.328870  0.368541
  5473.996  5474.000  0.500  3.543549  109.135  3.155163  0.324283
  5474.902  5474.900  0.500  3.616724  109.138  2.932606  0.283290
  5475.799  5475.800  0.500  3.685769  109.149  2.737233  0.251530
  5476.703  5476.700  0.500  3.745704  109.187  2.578889  0.226472
  5477.602  5477.600  0.500  3.797728  109.211  2.448703  0.205532
  5478.501  5478.500  0.500  3.844370  109.228  2.337470  0.188187
  5479.403  5479.400  0.500  3.892421  109.235  2.227938  0.172739
  5480.300  5480.300  0.500  3.945909  109.225  2.111724  0.157558
  5481.203  5481.200  0.500  3.994919  109.268  2.011504  0.145623
  5482.101  5482.100  0.500  4.030680  109.294  1.941310  0.136410
  5483.000  5483.000  0.500  4.055485  109.32  1.894203  0.129639
  5483.901  5483.900  0.500  4.073427  109.343  1.860913  0.127067
  5484.799  5484.800  0.500  4.089444  109.372  1.831828  0.128938
  5485.697  5485.700  0.500  4.105216  109.364  1.803021  0.132382
  5486.602  5486.600  0.500  4.119345  109.427  1.778753  0.135705
  5487.497  5487.500  0.500  4.123760  109.445  1.771205  0.138196
  5488.401  5488.400  0.500  4.116199  109.466  1.784989  0.139935
  5489.299  5489.300  0.500  4.101518  109.487  1.811734  0.140994
  5490.098  5490.100  0.500  4.082348  109.512  1.847231  0.141619
  5493.106  5493.110  0.500  4.018795  109.565  1.969380  0.144364
  5496.304  5496.300  0.500  4.004140  110.034  2.007021  0.151693
  5499.669  5499.660  0.500  4.027650  110.08  1.961193  0.143798
  5503.185  5503.180  0.500  3.995697  110.161  2.026363  0.145145
  5506.882  5506.880  0.500  3.936629  110.225  2.150923  0.152895
  5510.754  5510.750  0.500  3.903347  110.298  2.225190  0.155203
  5514.805  5514.800  0.500  3.881174  110.353  2.276212  0.161762
  5519.015  5519.010  0.500  3.866764  110.433  2.310926  0.169013
  5523.398  5523.390  0.500  3.861823  110.489  2.323532  0.179185
  5527.957  5527.950  0.500  3.865084  110.52  2.316638  0.186119
  5532.688  5532.680  0.500  3.874126  110.579  2.296997  0.185514
  5537.588  5537.580  0.500  3.888245  110.66  2.266446  0.174199
  5542.663  5542.650  0.500  3.892419  110.741  2.258664  0.172961
  5547.897  5547.890  0.500  3.882294  110.8  2.282874  0.185816
  5553.332  5553.310  0.500  3.861051  110.823  2.332372  0.196706
  5558.901  5558.890  0.500  3.836783  110.883  2.390943  0.186240
  5564.671  5564.650  0.500  3.815302  110.911  2.443478  0.177021
  5570.601  5570.580  0.500  3.795276  110.938  2.493515  0.187846
  5576.681  5576.680  0.500  3.780592  111.025  2.532389  0.209642
  5582.950  5582.950  0.500  3.760248  111.047  2.584947  0.220345
  5589.398  5589.390  0.500  3.749808  111.119  2.613762  0.223076
  5595.993  5596.000  0.500  3.738408  111.123  2.643826  0.232142
  5602.801  5602.790  0.500  3.723136  111.159  2.685394  0.236415
  5609.765  5609.750  0.500  3.714369  111.201  2.710046  0.234847
  5616.867  5616.870  0.500  3.700889  111.213  2.747143  0.235032
  5624.182  5624.170  0.500  3.683174  111.254  2.797255  0.231246
  5631.659  5631.650  0.500  3.671362  111.248  2.830341  0.240034
  5639.303  5639.290  0.500  3.659537  111.196  2.862673  0.255469
  5647.103  5647.100  0.500  3.637622  111.159  2.925135  0.267639
  5655.090  5655.090  0.500  3.621427  111.08  2.970763  0.277422
  5663.256  5663.250  0.500  3.604516  110.987  3.018924  0.286745
  5671.571  5671.570  0.500  3.580193  110.821  3.088619  0.300565
  5680.080  5680.070  0.500  3.556521  110.62  3.156857  0.303700
  5688.757  5688.750  0.500  3.539041  110.352  3.204748  0.301866
  5697.604  5697.590  0.500  3.523099  110.03  3.246733  0.302911
  5706.619  5706.600  0.500  3.508945  109.629  3.281024  0.316829
  5715.801  5715.790  0.500  3.493774  109.142  3.316392  0.332034
  5725.176  5725.150  0.500  3.472749  108.588  3.369659  0.342240
  5734.664  5734.670  0.500  3.456260  107.945  3.405395  0.350860
  5744.383  5744.370  0.500  3.438199  107.253  3.445222  0.359494
  5754.274  5754.250  0.500  3.416689  106.433  3.493213  0.370337
  5764.275  5764.290  0.500  3.396179  105.553  3.536144  0.375770
  5774.486  5774.500  0.500  3.377754  104.663  3.571530  0.379690
  5784.879  5784.890  0.500  3.356050  103.699  3.616263  0.387288
  5795.440  5795.450  0.500  3.335208  102.733  3.658024  0.398765
  5806.169  5806.180  0.500  3.312917  101.764  3.705191  0.412733
  5817.078  5817.080  0.500  3.292389  100.743  3.744097  0.424463
  5828.137  5828.150  0.500  3.273250  99.7669  3.779481  0.433553
  5839.380  5839.390  0.500  3.253917  99.125  3.828468  0.444567
  5850.805  5850.810  0.500  3.233449  98.1415  3.868867  0.453838
  5862.378  5862.390  0.500  3.212053  96.987  3.906038  0.463805
  5874.142  5874.150  0.500  3.190305  88.6254  3.647762  0.435703
  5886.070  5886.080  0.500  3.170080  96.1592  4.038709  0.489559
  5898.165  5898.180  0.500  3.150350  95.0877  4.073285  0.501408
  5910.437  5910.450  0.500  3.129168  93.6281  4.096620  0.511204
  5922.876  5922.890  0.500  3.106246  93.895  4.203556  0.531835
  5935.499  5935.510  0.500  3.083786  92.9428  4.255442  0.544888
  5948.287  5948.290  0.500  3.061212  92.8203  4.346859  0.565014
  5961.234  5961.250  0.500  3.040169  91.341  4.368545  0.575391
  5974.380  5974.380  0.500  3.019806  90.1029  4.397985  0.585835
  5987.668  5987.680  0.500  2.998611  86.72  4.323536  0.582399
  6001.135  6001.150  0.500  2.977316  88.7645  4.520718  0.617011
  6014.789  6014.800  0.500  2.955895  87.4143  4.548346  0.629542
  6028.594  6028.610  0.500  2.933425  86.256  4.590066  0.643975
  6042.577  6042.600  0.500  2.914018  85.181  4.621690  0.655375
  6056.751  6056.760  0.500  2.888960  83.5808  4.649940  0.669569
  6071.077  6071.090  0.500  2.868002  82.1411  4.666625  0.681104
  6085.583  6085.590  0.500  2.846936  80.6847  4.681475  0.692071
  6100.248  6100.260  0.500  2.824324  79.1749  4.698931  0.703570
  6105.182  6105.190  0.500  2.816737  78.6289  4.702070  0.707020