File: xdidata/V/V-Vfoil.xdi
# XDI/1.0 BlueSky/1.10.0 BMM/2023-1.0-py310-tiled
# Beamline.name: BMM (06BM) -- Beamline for Materials Measurement (NIST)
# Beamline.xray_source: NSLS-II three-pole wiggler
# Beamline.collimation: paraboloid mirror, 5 nm Rh on 30 nm Pt
# Beamline.focusing: not in use
# Beamline.harmonic_rejection: flat mirror, Si stripe, pitch = 7.0 mrad relative to beam
# Beamline.software: Bluesky 1.10.0, Ophyd 1.7.0, DataBroker 2.0.0b13, Python 3.10.8, 2023-1.0-py310-tiled
# Detector.I0: 10 cm N2
# Detector.I1: 25 cm N2
# Detector.I2: 25 cm N2
# Element.symbol: V
# Element.edge: K
# Element.reference: V
# Element.reference_material: V foil
# Facility.name: NSLS-II
# Facility.energy: 3.0
# Facility.current: 399.8
# Facility.mode: top-off
# Facility.GUP: 123456
# Facility.SAF: 301027
# Facility.cycle: 2023-2
# Mono.name: Si(111)
# Mono.d_spacing: 3.13519
# Mono.encoder_resolution: 0.0000050 deg/ct
# Mono.angle_offset: 16.0754 deg
# Mono.scan_mode: pseudo channel cut
# Mono.scan_type: step
# Mono.direction: forward in energy
# Sample.name: V foil
# Sample.prep: foil reference
# Sample.x: 116.329 mm
# Sample.y: 114.126 mm
# Sample.SDD_position: 205.000 mm
# Scan.experimenters: Bruce Ravel
# Scan.edge_energy: 5465.1
# Scan.start_time: 2023-05-06T09:51:57
# Scan.end_time: 2023-05-06T09:59:21
# Scan.transient_id: 74699
# Scan.uid: f8d5b096-3de6-434a-a31d-33a75c383afc
# Scan.plot_hint: ln(It/Ir)  --  ln($6/$7)
# Column.1: energy eV
# Column.2: requested_energy eV
# Column.3: measurement_time seconds
# Column.4: xmu
# Column.5: I0 nA
# Column.6: It nA
# Column.7: Ir nA
# ///////////
# foil
# -----------
# energy  requested_energy  measurement_time  xmu  I0  It  Ir
  5265.104  5265.100  0.500  1.865526  98.7732  18.2555  2.826223
  5295.111  5295.100  0.500  1.833615  100.623  19.3411  3.091371
  5325.113  5325.100  0.500  1.802446  102.33  20.4584  3.373486
  5355.389  5355.100  0.500  1.772080  103.909  21.5846  3.668933
  5385.097  5385.100  0.500  1.742529  105.43  22.7301  3.979518
  5415.094  5415.100  0.500  1.714016  106.755  23.8675  4.299513
  5437.094  5437.100  0.500  1.694276  107.577  24.6725  4.533134
  5443.093  5443.100  0.500  1.689209  107.954  24.9387  4.605327
  5449.095  5449.100  0.500  1.685101  108.302  25.2057  4.673781
  5455.095  5455.100  0.500  1.682575  108.532  25.4409  4.729321
  5455.989  5456.000  0.500  1.682369  108.527  25.4754  4.736713
  5456.890  5456.900  0.500  1.682608  108.547  25.4842  4.737231
  5457.791  5457.800  0.500  1.682988  108.556  25.5279  4.743535
  5458.690  5458.700  0.500  1.683801  108.558  25.5515  4.744072
  5459.595  5459.600  0.500  1.685191  108.583  25.5933  4.745221
  5460.494  5460.500  0.500  1.687510  108.582  25.5865  4.732971
  5461.398  5461.400  0.500  1.691595  108.609  25.6483  4.725062
  5462.294  5462.300  0.500  1.699646  108.612  25.6778  4.692574
  5463.195  5463.200  0.500  1.721276  108.628  25.7133  4.598509
  5464.099  5464.100  0.500  1.820573  108.654  25.7268  4.166019
  5464.994  5465.000  0.500  1.996684  108.682  25.7728  3.499552
  5465.899  5465.900  0.500  1.947844  108.67  25.7848  3.676424
  5466.796  5466.800  0.500  1.952717  108.705  25.835  3.665683
  5467.699  5467.700  0.500  2.003468  108.692  25.8399  3.484936
  5468.599  5468.600  0.500  2.057787  108.7  25.8639  3.303758
  5469.495  5469.500  0.500  2.094729  108.717  25.91  3.189618
  5470.399  5470.400  0.500  2.109600  108.731  25.9332  3.145341
  5471.300  5471.300  0.500  2.115537  108.747  25.9772  3.132033
  5472.200  5472.200  0.500  2.137525  108.764  25.9892  3.065326
  5473.103  5473.100  0.500  2.198106  108.789  26.0417  2.890969
  5474.001  5474.000  0.500  2.271426  108.775  26.0612  2.688604
  5474.904  5474.900  0.500  2.333212  108.823  26.0817  2.529497
  5475.801  5475.800  0.500  2.382513  108.806  26.1278  2.412076
  5476.703  5476.700  0.500  2.428009  108.838  26.1674  2.308287
  5477.601  5477.600  0.500  2.472393  108.849  26.1785  2.209011
  5478.500  5478.500  0.500  2.513007  108.863  26.1971  2.122601
  5479.403  5479.400  0.500  2.551743  108.887  26.2519  2.046225
  5480.298  5480.300  0.500  2.588609  108.885  26.2812  1.974358
  5481.205  5481.200  0.500  2.619521  108.927  26.3238  1.917367
  5482.103  5482.100  0.500  2.648216  108.948  26.3488  1.864897
  5483.002  5483.000  0.500  2.675120  108.959  26.3658  1.816566
  5483.903  5483.900  0.500  2.676595  108.967  26.3984  1.816133
  5484.803  5484.800  0.500  2.646506  109.001  26.4117  1.872553
  5485.701  5485.700  0.500  2.604133  109.032  26.4787  1.958559
  5486.603  5486.600  0.500  2.566543  109.046  26.5063  2.035700
  5487.498  5487.500  0.500  2.543519  109.076  26.5454  2.086183
  5488.403  5488.400  0.500  2.537790  109.11  26.581  2.100986
  5489.304  5489.300  0.500  2.545553  109.135  26.6195  2.087761
  5490.099  5490.100  0.500  2.560537  109.14  26.6374  2.058090
  5493.121  5493.110  0.500  2.604679  109.202  26.7361  1.976515
  5496.298  5496.300  0.500  2.575324  109.255  26.8489  2.043985
  5499.661  5499.660  0.500  2.603808  109.679  27.0583  2.002076
  5503.184  5503.180  0.500  2.627371  109.769  27.2006  1.965737
  5506.884  5506.880  0.500  2.635333  109.82  27.3204  1.958736
  5510.756  5510.750  0.500  2.654787  109.878  27.4548  1.930448
  5514.808  5514.800  0.500  2.635617  109.956  27.6049  1.978571
  5519.019  5519.010  0.500  2.607874  110.021  27.7349  2.043811
  5523.398  5523.390  0.500  2.553988  110.059  27.8961  2.169502
  5527.957  5527.950  0.500  2.514019  110.119  28.0433  2.269888
  5532.689  5532.680  0.500  2.507234  110.159  28.2124  2.299118
  5537.587  5537.580  0.500  2.556327  110.208  28.3487  2.199551
  5542.657  5542.650  0.500  2.561277  110.287  28.5467  2.203978
  5547.897  5547.890  0.500  2.499685  110.328  28.7248  2.358618
  5553.329  5553.310  0.500  2.464318  110.37  28.9021  2.458608
  5558.903  5558.890  0.500  2.542755  110.391  29.0817  2.287261
  5564.662  5564.650  0.500  2.615602  110.452  29.2692  2.140276
  5570.590  5570.580  0.500  2.576838  110.485  29.4705  2.240170
  5576.695  5576.680  0.500  2.484228  110.563  29.6873  2.475619
  5582.962  5582.950  0.500  2.453768  110.603  29.9013  2.570583
  5589.402  5589.390  0.500  2.452998  110.649  30.1166  2.591089
  5595.995  5596.000  0.500  2.424446  110.673  30.3346  2.685433
  5602.800  5602.790  0.500  2.422827  110.684  30.5617  2.709925
  5609.745  5609.750  0.500  2.438226  110.736  30.7961  2.688980
  5616.876  5616.870  0.500  2.450588  110.767  31.0323  2.676313
  5624.189  5624.170  0.500  2.483604  110.787  31.2516  2.607699
  5631.662  5631.650  0.500  2.459906  110.795  31.5025  2.691669
  5639.298  5639.290  0.500  2.408374  110.792  31.7671  2.857815
  5647.104  5647.100  0.500  2.383160  110.803  32.0081  2.953020
  5655.090  5655.090  0.500  2.363837  110.693  32.2184  3.030416
  5663.256  5663.250  0.500  2.345654  110.581  32.4857  3.111633
  5671.575  5671.570  0.500  2.322525  110.462  32.717  3.207113
  5680.083  5680.070  0.500  2.332940  110.277  32.9415  3.195654
  5688.759  5688.750  0.500  2.353956  110.014  33.1293  3.147044
  5697.600  5697.590  0.500  2.364561  109.693  33.3385  3.133502
  5706.606  5706.600  0.500  2.329561  109.365  33.5267  3.263435
  5715.799  5715.790  0.500  2.293657  108.946  33.7088  3.401111
  5725.143  5725.150  0.500  2.278792  108.453  33.8434  3.465831
  5734.694  5734.670  0.500  2.265493  107.853  33.9773  3.526123
  5744.396  5744.370  0.500  2.252937  107.203  34.0912  3.582645
  5754.277  5754.250  0.500  2.236766  106.461  34.1716  3.649636
  5764.294  5764.290  0.500  2.234104  105.674  34.2545  3.668245
  5774.486  5774.500  0.500  2.234803  104.832  34.3059  3.671187
  5784.876  5784.890  0.500  2.227160  103.935  34.3334  3.702317
  5795.441  5795.450  0.500  2.210234  103.026  34.3424  3.766506
  5806.168  5806.180  0.500  2.187750  102.071  34.3882  3.857282
  5817.067  5817.080  0.500  2.170821  101.094  34.389  3.923229
  5828.142  5828.150  0.500  2.158830  100.126  34.3789  3.969396
  5839.377  5839.390  0.500  2.146929  99.4792  34.54  4.035739
  5850.798  5850.810  0.500  2.136567  98.4731  34.5224  4.075700
  5862.384  5862.390  0.500  2.124754  97.2975  34.4698  4.117844
  5874.139  5874.150  0.500  2.119201  88.7514  31.7709  3.816560
  5886.069  5886.080  0.500  2.104478  96.4755  34.8808  4.252292
  5898.173  5898.180  0.500  2.088953  95.3476  34.8384  4.313580
  5910.437  5910.450  0.500  2.075445  93.9279  34.6704  4.351151
  5922.874  5922.890  0.500  2.061515  94.1861  35.1379  4.471685
  5935.505  5935.510  0.500  2.049442  93.2522  35.158  4.528584
  5948.280  5948.290  0.500  2.034937  93.0887  35.4771  4.636460
  5961.236  5961.250  0.500  2.021524  91.5863  35.2583  4.670092
  5974.368  5974.380  0.500  2.010407  90.3782  35.1725  4.710801
  5987.671  5987.680  0.500  1.998924  86.8973  34.18  4.630742
  6001.142  6001.150  0.500  1.985980  88.992  35.4076  4.859546
  6014.786  6014.800  0.500  1.971914  87.5964  35.2191  4.902155
  6028.594  6028.610  0.500  1.958936  86.4061  35.1175  4.951859
  6042.586  6042.600  0.500  1.945967  85.0998  34.9798  4.996823
  6056.749  6056.760  0.500  1.932619  83.6929  34.783  5.035491
  6071.077  6071.090  0.500  1.919596  82.1888  34.5275  5.064018
  6085.575  6085.590  0.500  1.906576  80.6844  34.2748  5.092839
  6100.249  6100.260  0.500  1.894079  79.1547  33.9981  5.115250
  6105.176  6105.190  0.500  1.889740  78.6102  33.8703  5.118180