File: xdidata/Pr/Pr-L1-Pr2TiO5.xdi
# XDI/1.0 BlueSky/1.10.0 BMM/2023-1.0-py310-tiled
# Beamline.name: BMM (06BM) -- Beamline for Materials Measurement (NIST)
# Beamline.xray_source: NSLS-II three-pole wiggler
# Beamline.collimation: paraboloid mirror, 5 nm Rh on 30 nm Pt
# Beamline.focusing: not in use
# Beamline.harmonic_rejection: flat mirror, Si stripe, pitch = 7.0 mrad relative to beam
# Beamline.software: Bluesky 1.10.0, Ophyd 1.7.0, DataBroker 2.0.0b13, Python 3.10.8, 2023-1.0-py310-tiled
# Detector.I0: 10 cm N2
# Detector.I1: 25 cm N2
# Detector.I2: 25 cm N2
# Element.symbol: Pr
# Element.edge: L1
# Element.reference: Pr
# Element.reference_material: Pr6O11
# Facility.name: NSLS-II
# Facility.energy: 3.0
# Facility.current: 400.0
# Facility.mode: top-off
# Facility.GUP: 123456
# Facility.SAF: 301027
# Facility.cycle: 2023-2
# Mono.name: Si(111)
# Mono.d_spacing: 3.13519
# Mono.encoder_resolution: 0.0000050 deg/ct
# Mono.angle_offset: 16.0754 deg
# Mono.scan_mode: pseudo channel cut
# Mono.scan_type: step
# Mono.direction: forward in energy
# Sample.name: Pr2TiO5
# Sample.prep: Powder in PEG pellet
# Sample.x: 149.848 mm
# Sample.y: 114.690 mm
# Sample.SDD_position: 205.000 mm
# Scan.experimenters: Bruce Ravel
# Scan.edge_energy: 6834.8
# Scan.start_time: 2023-05-08T20:02:53
# Scan.end_time: 2023-05-08T20:08:50
# Scan.transient_id: 75564
# Scan.uid: 6aa98774-e54b-418d-b6aa-671c3be0bbc0
# Scan.plot_hint: ln(I0/It)  --  ln($5/$6)
# Column.1: energy eV
# Column.2: requested_energy eV
# Column.3: measurement_time seconds
# Column.4: xmu
# Column.5: I0 nA
# Column.6: It nA
# Column.7: Ir nA
# ///////////
# sample courtesy Martin Stennett, University of Sheffield
# -----------
# energy  requested_energy  measurement_time  xmu  I0  It  Ir
  6634.803  6634.800  0.500  2.069936  150.981  19.0529  0.581035
  6654.815  6654.800  0.500  2.051025  151.221  19.4475  0.611922
  6674.829  6674.800  0.500  2.031789  151.498  19.8615  0.636492
  6694.825  6694.800  0.500  2.011756  151.77  20.2999  0.669162
  6714.818  6714.800  0.500  1.992999  151.996  20.715  0.697376
  6734.812  6734.800  0.500  1.974255  152.217  21.1376  0.727306
  6754.812  6754.800  0.500  1.955280  152.413  21.5702  0.763645
  6774.809  6774.800  0.500  1.937143  152.609  21.9932  0.794311
  6794.774  6794.800  0.500  1.918429  146.411  21.4987  0.794149
  6806.779  6806.800  0.500  1.908055  152.545  22.633  0.846753
  6810.783  6810.800  0.500  1.904302  146.902  21.8776  0.822433
  6814.802  6814.800  0.500  1.901146  152.387  22.7662  0.859579
  6818.798  6818.800  0.500  1.897694  152.533  22.8669  0.866572
  6822.795  6822.800  0.500  1.894219  146.042  21.97  0.835070
  6825.289  6825.300  0.500  1.892461  151.942  22.8977  0.871417
  6826.285  6826.300  0.500  1.891599  152.265  22.9661  0.874033
  6827.289  6827.300  0.500  1.891111  152.373  22.9937  0.874829
  6828.287  6828.300  0.500  1.890582  152.428  23.0142  0.875656
  6829.286  6829.300  0.500  1.889884  152.466  23.0361  0.874982
  6830.287  6830.300  0.500  1.889128  152.485  23.0563  0.873752
  6831.290  6831.300  0.500  1.888472  152.498  23.0734  0.872273
  6832.292  6832.300  0.500  1.888073  152.514  23.0851  0.872192
  6833.294  6833.300  0.500  1.887881  152.52  23.0903  0.871679
  6834.294  6834.300  0.500  1.887461  152.537  23.1026  0.870641
  6835.299  6835.300  0.500  1.887906  152.54  23.0927  0.868128
  6836.296  6836.300  0.500  1.888179  152.545  23.0872  0.863352
  6837.291  6837.300  0.500  1.888827  153.163  23.1657  0.860386
  6838.294  6838.300  0.500  1.889587  152.941  23.1147  0.852339
  6839.304  6839.300  0.500  1.890399  152.381  23.0113  0.842363
  6840.298  6840.300  0.500  1.890318  143.87  21.7278  0.789580
  6841.295  6841.300  0.500  1.890975  145.812  22.0066  0.794901
  6842.301  6842.300  0.500  1.891673  151.538  22.8549  0.819162
  6843.300  6843.300  0.500  1.892540  152.191  22.9335  0.814389
  6844.300  6844.300  0.500  1.893867  152.429  22.9389  0.805153
  6845.298  6845.300  0.500  1.895315  152.541  22.9225  0.793495
  6846.300  6846.300  0.500  1.897257  152.615  22.8891  0.778721
  6847.300  6847.300  0.500  1.898118  152.652  22.8749  0.764724
  6848.296  6848.300  0.500  1.898972  152.673  22.8586  0.750761
  6849.295  6849.300  0.500  1.899743  152.687  22.843  0.739468
  6850.299  6850.300  0.500  1.900261  152.701  22.8333  0.731186
  6851.306  6851.300  0.500  1.899928  152.718  22.8435  0.726419
  6852.298  6852.300  0.500  1.899064  152.73  22.865  0.722888
  6853.294  6853.300  0.500  1.898308  152.732  22.8825  0.720357
  6854.301  6854.300  0.500  1.897572  152.729  22.899  0.717470
  6855.295  6855.300  0.500  1.896842  152.75  22.9189  0.715504
  6856.300  6856.300  0.500  1.896229  152.755  22.9336  0.714588
  6857.304  6857.300  0.500  1.895766  152.754  22.9442  0.713849
  6858.301  6858.300  0.500  1.895452  152.762  22.9526  0.712832
  6859.299  6859.300  0.500  1.894111  152.737  22.9796  0.711656
  6860.801  6860.790  0.500  1.892478  152.554  22.9896  0.707358
  6862.819  6862.810  0.500  1.889755  152.715  23.0765  0.705809
  6864.939  6864.920  0.500  1.886346  152.826  23.1723  0.712774
  6867.117  6867.100  0.500  1.882099  152.856  23.2753  0.725070
  6869.368  6869.360  0.500  1.878027  152.872  23.3729  0.738042
  6871.704  6871.690  0.500  1.874838  152.888  23.4499  0.751184
  6874.104  6874.100  0.500  1.872610  152.905  23.5048  0.762226
  6876.590  6876.580  0.500  1.870475  152.928  23.5586  0.770836
  6879.152  6879.140  0.500  1.868755  152.926  23.5989  0.777757
  6881.793  6881.780  0.500  1.867085  152.933  23.6394  0.782845
  6884.503  6884.500  0.500  1.864957  152.921  23.6879  0.786555
  6887.301  6887.290  0.500  1.863219  152.934  23.7312  0.789630
  6890.160  6890.150  0.500  1.861247  152.939  23.7787  0.792206
  6893.100  6893.090  0.500  1.859487  152.936  23.8202  0.793979
  6896.115  6896.110  0.500  1.857907  152.948  23.8597  0.795478
  6899.211  6899.210  0.500  1.855727  152.939  23.9104  0.798934
  6902.380  6902.380  0.500  1.853006  152.927  23.9736  0.803006
  6905.631  6905.630  0.500  1.849645  152.904  24.0507  0.807587
  6908.954  6908.950  0.500  1.847119  152.872  24.1065  0.811437
  6912.357  6912.350  0.500  1.843781  152.784  24.1732  0.815843
  6915.836  6915.830  0.500  1.840436  152.741  24.2473  0.820596
  6919.390  6919.380  0.500  1.837169  152.653  24.3127  0.826385
  6923.019  6923.010  0.500  1.833299  152.624  24.4023  0.834244
  6926.720  6926.710  0.500  1.829859  152.586  24.4803  0.842156
  6930.495  6930.490  0.500  1.826669  152.563  24.5548  0.850444
  6934.360  6934.350  0.500  1.823005  152.542  24.6415  0.858981
  6938.290  6938.280  0.500  1.819452  152.545  24.7298  0.869140
  6942.294  6942.290  0.500  1.816435  152.532  24.8024  0.879161
  6946.385  6946.380  0.500  1.813108  152.505  24.8806  0.887641
  6950.546  6950.540  0.500  1.809605  152.478  24.9634  0.895091
  6954.792  6954.780  0.500  1.806468  152.463  25.0395  0.901707
  6959.101  6959.090  0.500  1.803038  152.436  25.121  0.907694
  6963.493  6963.480  0.500  1.799953  152.427  25.1972  0.913434
  6967.955  6967.950  0.500  1.796487  152.43  25.2852  0.919260
  6972.503  6972.490  0.500  1.792350  152.408  25.3863  0.927366
  6977.126  6977.110  0.500  1.788107  152.363  25.4868  0.936706
  6981.812  6981.800  0.500  1.784480  152.315  25.5712  0.945222
  6986.584  6986.570  0.500  1.780476  152.278  25.6676  0.954741
  6991.435  6991.420  0.500  1.776865  152.249  25.7556  0.962836
  6996.363  6996.350  0.500  1.772436  152.213  25.8638  0.971790
  7001.365  7001.350  0.500  1.767902  152.169  25.9738  0.979695
  7006.429  7006.420  0.500  1.763799  152.13  26.0739  0.988496
  7011.587  7011.570  0.500  1.759839  152.078  26.1685  0.997590
  7016.814  7016.800  0.500  1.755113  152.045  26.2867  1.009050
  7022.131  7022.110  0.500  1.750785  152.013  26.3951  1.021799
  7027.493  7027.490  0.500  1.747113  151.975  26.4857  1.033026
  7032.965  7032.950  0.500  1.742471  151.9  26.5958  1.044521
  7038.494  7038.480  0.500  1.738255  151.861  26.7013  1.054131
  7044.103  7044.090  0.500  1.733676  151.814  26.8155  1.064826
  7049.781  7049.770  0.500  1.729193  151.736  26.9221  1.074778
  7055.551  7055.540  0.500  1.724517  151.698  27.0416  1.085588
  7061.389  7061.370  0.500  1.719946  151.687  27.1634  1.097810
  7067.301  7067.290  0.500  1.715070  151.542  27.2701  1.110083
  7073.296  7073.280  0.500  1.710540  151.457  27.3787  1.122992
  7079.362  7079.350  0.500  1.705122  151.383  27.5139  1.137203
  7085.504  7085.490  0.500  1.700494  151.223  27.6124  1.148873
  7091.718  7091.710  0.500  1.695568  151.187  27.7421  1.161090
  7098.012  7098.000  0.500  1.690462  151.127  27.873  1.174239
  7104.384  7104.370  0.500  1.685569  151.047  27.9948  1.186590
  7110.832  7110.820  0.500  1.680381  150.862  28.1061  1.199522
  7117.357  7117.350  0.500  1.675109  150.531  28.1926  1.212349
  7123.961  7123.950  0.500  1.670381  150.21  28.2658  1.225712
  7130.632  7130.620  0.500  1.665551  149.758  28.3172  1.237382
  7137.383  7137.370  0.500  1.660213  149.593  28.4374  1.252768
  7144.212  7144.200  0.500  1.655192  149.561  28.5745  1.267564
  7151.121  7151.110  0.500  1.650098  149.514  28.7114  1.282141
  7158.100  7158.090  0.500  1.644914  149.428  28.8439  1.296405
  7165.159  7165.150  0.500  1.639542  149.759  29.0636  1.315285
  7172.288  7172.280  0.500  1.633902  149.555  29.1882  1.331363
  7179.500  7179.490  0.500  1.628356  149.396  29.3193  1.348926
  7186.790  7186.780  0.500  1.623258  149.237  29.4377  1.365093
  7194.144  7194.140  0.500  1.617401  148.872  29.5382  1.381409
  7201.584  7201.580  0.500  1.612292  148.777  29.6706  1.398025
  7209.095  7209.090  0.500  1.606390  148.529  29.7964  1.415578
  7216.687  7216.680  0.500  1.601140  148.283  29.9036  1.431639
  7224.359  7224.350  0.500  1.595363  148.041  30.028  1.448210
  7232.095  7232.090  0.500  1.589636  147.96  30.1838  1.467013
  7239.915  7239.910  0.500  1.583871  147.743  30.3138  1.485054
  7247.813  7247.810  0.500  1.579158  147.439  30.3944  1.501709
  7255.790  7255.780  0.500  1.572935  147.423  30.5808  1.524799
  7263.838  7263.830  0.500  1.566536  137.056  28.6128  1.438342
  7271.963  7271.950  0.500  1.561083  147.31  30.9217  1.568063
  7280.162  7280.150  0.500  1.555233  147.258  31.0921  1.588869
  7288.438  7288.430  0.500  1.549469  146.923  31.2007  1.607849
  7296.811  7296.780  0.500  1.543625  146.708  31.3376  1.627933
  7305.222  7305.210  0.500  1.537625  146.589  31.5005  1.649479
  7313.725  7313.710  0.500  1.531305  146.312  31.6405  1.672351
  7322.311  7322.290  0.500  1.525326  146.056  31.7744  1.694320
  7330.973  7330.950  0.500  1.519118  145.789  31.914  1.717140
  7339.683  7339.690  0.500  1.513373  143.19  31.5255  1.711319
  7348.484  7348.500  0.500  1.506896  145.213  32.1787  1.762094
  7357.379  7357.380  0.500  1.500932  144.955  32.3138  1.784504
  7366.327  7366.340  0.500  1.494689  144.672  32.4525  1.806636
  7375.366  7375.380  0.500  1.488688  144.412  32.5893  1.829886
  7379.921  7379.930  0.500  1.485611  144.255  32.6542  1.842070