File: xdidata/Pr/Pr-L1-PraseodymiumOxide.xdi
# XDI/1.0 BlueSky/1.10.0 BMM/2023-1.0-py310-tiled
# Beamline.name: BMM (06BM) -- Beamline for Materials Measurement (NIST)
# Beamline.xray_source: NSLS-II three-pole wiggler
# Beamline.collimation: paraboloid mirror, 5 nm Rh on 30 nm Pt
# Beamline.focusing: not in use
# Beamline.harmonic_rejection: flat mirror, Si stripe, pitch = 7.0 mrad relative to beam
# Beamline.software: Bluesky 1.10.0, Ophyd 1.7.0, DataBroker 2.0.0b13, Python 3.10.8, 2023-1.0-py310-tiled
# Detector.I0: 10 cm N2
# Detector.I1: 25 cm N2
# Detector.I2: 25 cm N2
# Element.symbol: Pr
# Element.edge: L1
# Element.reference: Pr
# Element.reference_material: Pr6O11
# Facility.name: NSLS-II
# Facility.energy: 3.0
# Facility.current: 399.3
# Facility.mode: top-off
# Facility.GUP: 301027
# Facility.SAF: 310583
# Facility.cycle: 2023-2
# Mono.name: Si(111)
# Mono.d_spacing: 3.13519
# Mono.encoder_resolution: 0.0000050 deg/ct
# Mono.angle_offset: 16.0754 deg
# Mono.scan_mode: pseudo channel cut
# Mono.scan_type: step
# Mono.direction: forward in energy
# Sample.name: Pr6O11
# Sample.prep: PEG pellet
# Sample.x: 109.138 mm
# Sample.y: 153.150 mm
# Sample.SDD_position: 205.000 mm
# Scan.experimenters: Bruce Ravel
# Scan.edge_energy: 6834.8
# Scan.start_time: 2023-05-28T12:57:03
# Scan.end_time: 2023-05-28T13:04:56
# Scan.transient_id: 78700
# Scan.uid: 9b1d83a5-1b2c-460e-ab96-64fd5aa97cf1
# Scan.plot_hint: ln(It/Ir)  --  ln($6/$7)
# Column.1: energy eV
# Column.2: requested_energy eV
# Column.3: measurement_time seconds
# Column.4: xmu
# Column.5: I0 nA
# Column.6: It nA
# Column.7: Ir nA
# ///////////
# sample courtesy Martin Stennett, University of Sheffield
# -----------
# energy  requested_energy  measurement_time  xmu  I0  It  Ir
  6634.801  6634.800  0.500  3.839960  152.209  127.865  2.748384
  6664.851  6664.800  0.500  3.793769  152.698  129.711  2.919864
  6694.806  6694.800  0.500  3.752668  153.662  132.058  3.097432
  6724.810  6724.800  0.500  3.718009  154.054  133.828  3.249658
  6754.810  6754.800  0.500  3.671988  154.394  135.594  3.447602
  6784.794  6784.800  0.500  3.638661  154.842  137.462  3.613522
  6806.797  6806.800  0.500  3.609171  154.868  138.541  3.750892
  6812.794  6812.800  0.500  3.601490  153.382  137.47  3.750590
  6818.794  6818.800  0.500  3.594652  154.9  139.111  3.821424
  6824.795  6824.800  0.500  3.589870  153.328  138.014  3.809460
  6825.682  6825.700  0.500  3.589577  154.344  138.979  3.837223
  6826.582  6826.600  0.500  3.589311  154.601  139.238  3.845370
  6827.486  6827.500  0.500  3.589397  154.701  139.441  3.850655
  6828.388  6828.400  0.500  3.589755  154.74  139.472  3.850151
  6829.292  6829.300  0.500  3.590892  154.767  139.493  3.846350
  6830.184  6830.200  0.500  3.592822  154.79  139.571  3.841064
  6831.095  6831.100  0.500  3.594790  154.801  139.668  3.836176
  6831.996  6832.000  0.500  3.595839  154.798  139.706  3.833216
  6832.897  6832.900  0.500  3.596514  154.808  139.71  3.830720
  6833.791  6833.800  0.500  3.597123  154.808  139.802  3.830911
  6834.693  6834.700  0.500  3.598655  154.822  139.863  3.826728
  6835.601  6835.600  0.500  3.601499  154.819  139.904  3.816973
  6836.501  6836.500  0.500  3.606211  154.81  139.923  3.799536
  6837.397  6837.400  0.500  3.612271  154.786  139.926  3.776662
  6838.302  6838.300  0.500  3.618805  154.607  139.832  3.749548
  6839.199  6839.200  0.500  3.625599  154.133  139.485  3.714924
  6840.099  6840.100  0.500  3.631573  149.282  135.084  3.576289
  6840.994  6841.000  0.500  3.637766  143.002  129.453  3.406033
  6841.902  6841.900  0.500  3.644127  152.057  137.682  3.599595
  6842.802  6842.800  0.500  3.651774  153.6  139.122  3.609537
  6843.696  6843.700  0.500  3.660100  153.962  139.48  3.588816
  6844.601  6844.600  0.500  3.670864  154.145  139.684  3.555578
  6845.502  6845.500  0.500  3.684025  154.229  139.831  3.512793
  6846.403  6846.400  0.500  3.699806  154.294  139.943  3.460549
  6847.298  6847.300  0.500  3.715905  154.338  139.993  3.406517
  6848.201  6848.200  0.500  3.732113  154.362  140.075  3.353701
  6849.103  6849.100  0.500  3.746154  154.381  140.126  3.308153
  6849.997  6850.000  0.500  3.757295  154.378  140.158  3.272247
  6850.899  6850.900  0.500  3.765299  154.371  140.208  3.247302
  6851.804  6851.800  0.500  3.771133  154.356  140.23  3.228940
  6852.701  6852.700  0.500  3.775756  154.333  140.283  3.215258
  6853.598  6853.600  0.500  3.779610  154.324  140.298  3.203215
  6854.497  6854.500  0.500  3.783479  154.324  140.367  3.192437
  6855.403  6855.400  0.500  3.786391  154.334  140.379  3.183414
  6856.300  6856.300  0.500  3.788645  154.301  140.444  3.177714
  6857.198  6857.200  0.500  3.789665  154.312  140.435  3.174267
  6858.103  6858.100  0.500  3.791389  154.289  140.429  3.168674
  6859.003  6859.000  0.500  3.793352  154.256  140.501  3.164082
  6859.799  6859.800  0.500  3.796143  154.245  140.514  3.155555
  6862.823  6862.810  0.500  3.806991  154.194  140.613  3.123710
  6866.013  6866.000  0.500  3.795890  154.369  140.968  3.166543
  6869.374  6869.360  0.500  3.774087  154.616  141.361  3.245368
  6872.888  6872.880  0.500  3.752987  154.937  141.725  3.323114
  6876.586  6876.580  0.500  3.736910  154.99  141.957  3.382504
  6880.458  6880.450  0.500  3.726329  155.016  142.217  3.424732
  6884.505  6884.500  0.500  3.720492  155.029  142.415  3.449573
  6888.719  6888.710  0.500  3.717483  155.067  142.675  3.466289
  6893.104  6893.090  0.500  3.715675  155.074  142.864  3.477174
  6897.653  6897.650  0.500  3.714394  155.11  143.102  3.487426
  6902.390  6902.380  0.500  3.709648  155.122  143.333  3.509665
  6907.297  6907.280  0.500  3.705531  155.121  143.578  3.530172
  6912.359  6912.350  0.500  3.701258  155.041  143.731  3.549066
  6917.603  6917.590  0.500  3.695700  154.991  143.948  3.574240
  6923.027  6923.010  0.500  3.686653  154.949  144.163  3.612100
  6928.598  6928.590  0.500  3.676150  154.958  144.38  3.655737
  6934.368  6934.350  0.500  3.665759  154.931  144.685  3.701715
  6940.293  6940.280  0.500  3.652646  154.978  144.997  3.758684
  6946.395  6946.380  0.500  3.640907  154.984  145.266  3.810113
  6952.658  6952.650  0.500  3.632497  154.984  145.57  3.850343
  6959.105  6959.090  0.500  3.626346  154.956  145.817  3.880672
  6965.714  6965.700  0.500  3.620321  154.986  146.173  3.913636
  6972.503  6972.490  0.500  3.613526  154.992  146.435  3.947381
  6979.467  6979.450  0.500  3.603461  154.954  146.815  3.997668
  6986.586  6986.570  0.500  3.593238  154.949  147.116  4.047018
  6993.888  6993.870  0.500  3.585085  154.918  147.438  4.089088
  7001.373  7001.350  0.500  3.577602  154.902  147.758  4.128739
  7009.009  7008.990  0.500  3.569417  154.867  148.053  4.170980
  7016.812  7016.800  0.500  3.558325  154.832  148.307  4.224750
  7024.805  7024.790  0.500  3.545551  154.804  148.719  4.290952
  7032.963  7032.950  0.500  3.533492  154.771  149.036  4.352258
  7041.284  7041.270  0.500  3.523977  154.703  149.371  4.403756
  7049.785  7049.770  0.500  3.514739  154.639  149.669  4.453482
  7058.464  7058.450  0.500  3.504960  154.612  150.015  4.507657
  7067.301  7067.290  0.500  3.493133  154.524  150.329  4.570826
  7076.314  7076.300  0.500  3.480700  153.938  150.22  4.624664
  7085.501  7085.490  0.500  3.468895  154.254  150.914  4.701182
  7094.866  7094.850  0.500  3.458687  154.202  151.276  4.760817
  7104.378  7104.370  0.500  3.448023  154.113  151.639  4.823401
  7114.077  7114.070  0.500  3.436383  153.756  151.664  4.880676
  7123.959  7123.950  0.500  3.423138  153.397  151.748  4.948497
  7133.993  7133.990  0.500  3.409704  152.821  151.622  5.011243
  7144.214  7144.200  0.500  3.397623  152.763  152.058  5.086752
  7154.598  7154.590  0.500  3.386842  152.71  152.413  5.153879
  7165.155  7165.150  0.500  3.375468  152.514  152.724  5.223495
  7175.889  7175.880  0.500  3.362190  152.25  152.85  5.297680
  7186.792  7186.780  0.500  3.348190  152.042  153.158  5.383198
  7197.860  7197.850  0.500  3.334611  151.74  153.332  5.462966
  7209.102  7209.090  0.500  3.321437  151.455  153.456  5.539902
  7220.522  7220.510  0.500  3.308925  151.153  153.627  5.615919
  7232.095  7232.090  0.500  3.296375  150.98  153.99  5.700273
  7243.861  7243.850  0.500  3.282404  150.675  154.164  5.786996
  7255.788  7255.780  0.500  3.267852  150.529  154.51  5.885005
  7267.889  7267.880  0.500  3.253682  150.659  155.125  5.992741
  7280.184  7280.150  0.500  3.240165  150.581  155.586  6.092335
  7292.624  7292.590  0.500  3.226912  150.222  155.752  6.180200
  7305.242  7305.210  0.500  3.213149  150.566  156.609  6.300319
  7318.019  7317.990  0.500  3.198262  150.289  156.764  6.401155
  7330.941  7330.950  0.500  3.183412  149.98  157.018  6.507466
  7344.112  7344.080  0.500  3.168745  149.635  157.196  6.611067
  7357.358  7357.380  0.500  3.154518  149.379  157.452  6.716725
  7370.870  7370.850  0.500  3.140415  149.042  157.652  6.820767
  7384.511  7384.500  0.500  3.126034  148.644  157.739  6.923404
  7398.321  7398.310  0.500  3.110807  148.336  157.958  7.039407
  7412.308  7412.300  0.500  3.095372  147.973  158.128  7.156600
  7426.470  7426.460  0.500  3.079915  147.598  158.282  7.275147
  7440.804  7440.790  0.500  3.065183  147.153  158.345  7.386041
  7455.306  7455.290  0.500  3.050765  146.883  158.638  7.507200
  7469.979  7469.960  0.500  3.035789  146.568  158.835  7.629931
  7484.824  7484.800  0.500  3.020271  145.99  158.788  7.746932
  7499.802  7499.820  0.500  3.004966  145.492  158.783  7.866175
  7514.985  7515.000  0.500  2.989211  144.972  158.791  7.991510
  7530.327  7530.360  0.500  2.973796  144.444  158.787  8.115447
  7545.874  7545.890  0.500  2.958667  143.894  158.745  8.236980
  7561.586  7561.590  0.500  2.943013  143.359  158.745  8.366911
  7577.470  7577.460  0.500  2.927480  142.78  158.648  8.492702
  7593.491  7593.510  0.500  2.911832  142.082  158.453  8.616040
  7609.692  7609.720  0.500  2.895954  140.843  157.651  8.709640
  7626.086  7626.110  0.500  2.880151  140.775  158.157  8.876747
  7642.665  7642.670  0.500  2.864292  140.258  158.134  9.017373
  7659.379  7659.400  0.500  2.848542  139.673  158.015  9.153579
  7676.274  7676.300  0.500  2.832551  139.036  157.895  9.294064
  7687.660  7687.660  0.500  2.821960  137.555  156.575  9.314519