File: xdidata/Pr/Pr-L3-Pr2TiO5.xdi
# XDI/1.0 BlueSky/1.10.0 BMM/2023-1.0-py310-tiled
# Beamline.name: BMM (06BM) -- Beamline for Materials Measurement (NIST)
# Beamline.xray_source: NSLS-II three-pole wiggler
# Beamline.collimation: paraboloid mirror, 5 nm Rh on 30 nm Pt
# Beamline.focusing: not in use
# Beamline.harmonic_rejection: flat mirror, Si stripe, pitch = 7.0 mrad relative to beam
# Beamline.software: Bluesky 1.10.0, Ophyd 1.7.0, DataBroker 2.0.0b13, Python 3.10.8, 2023-1.0-py310-tiled
# Detector.I0: 10 cm N2
# Detector.I1: 25 cm N2
# Detector.I2: 25 cm N2
# Element.symbol: Pr
# Element.edge: L3
# Element.reference: Pr
# Element.reference_material: Pr6O11
# Facility.name: NSLS-II
# Facility.energy: 3.0
# Facility.current: 400.5
# Facility.mode: top-off
# Facility.GUP: 123456
# Facility.SAF: 301027
# Facility.cycle: 2023-2
# Mono.name: Si(111)
# Mono.d_spacing: 3.13519
# Mono.encoder_resolution: 0.0000050 deg/ct
# Mono.angle_offset: 16.0754 deg
# Mono.scan_mode: pseudo channel cut
# Mono.scan_type: step
# Mono.direction: forward in energy
# Sample.name: Pr2TiO5
# Sample.prep: Powder in PEG pellet
# Sample.x: 149.848 mm
# Sample.y: 114.690 mm
# Sample.SDD_position: 205.000 mm
# Scan.experimenters: Bruce Ravel
# Scan.edge_energy: 5964.3
# Scan.start_time: 2023-05-08T16:27:40
# Scan.end_time: 2023-05-08T16:33:14
# Scan.transient_id: 75400
# Scan.uid: a5dea640-9ab7-4e28-b699-ac5025608fe9
# Scan.plot_hint: ln(I0/It)  --  ln($5/$6)
# Column.1: energy eV
# Column.2: requested_energy eV
# Column.3: measurement_time seconds
# Column.4: xmu
# Column.5: I0 nA
# Column.6: It nA
# Column.7: Ir nA
# ///////////
# sample courtesy Martin Stennett, University of Sheffield
# -----------
# energy  requested_energy  measurement_time  xmu  I0  It  Ir
  5764.304  5764.300  0.500  2.972105  114.418  5.857681  0.250826
  5784.343  5784.300  0.500  2.937566  114.807  6.084155  0.268719
  5804.313  5804.300  0.500  2.903144  115.082  6.312297  0.287413
  5824.314  5824.300  0.500  2.869063  115.277  6.542229  0.307111
  5844.308  5844.300  0.500  2.835528  115.186  6.759984  0.327119
  5864.307  5864.300  0.500  2.803429  114.661  6.948680  0.346731
  5884.285  5884.300  0.500  2.770704  115.473  7.230696  0.371342
  5904.295  5904.300  0.500  2.738564  114.591  7.409799  0.391025
  5924.290  5924.300  0.500  2.707845  114.833  7.657088  0.414633
  5936.297  5936.300  0.500  2.690586  114.605  7.774906  0.425747
  5940.288  5940.300  0.500  2.685746  113.651  7.747614  0.425072
  5944.294  5944.300  0.500  2.681348  107.337  7.349454  0.403001
  5948.293  5948.300  0.500  2.678306  115.303  7.918938  0.432754
  5952.293  5952.300  0.500  2.678102  114.861  7.890221  0.425999
  5954.789  5954.800  0.500  2.681018  114.632  7.851554  0.417288
  5955.786  5955.800  0.500  2.683159  114.543  7.828642  0.411296
  5956.790  5956.800  0.500  2.686966  114.443  7.792125  0.403891
  5957.788  5957.800  0.500  2.693379  114.372  7.737519  0.393129
  5958.794  5958.800  0.500  2.701720  114.304  7.668647  0.378189
  5959.788  5959.800  0.500  2.712500  114.221  7.580922  0.358874
  5960.792  5960.800  0.500  2.725211  114.167  7.481608  0.336919
  5961.794  5961.800  0.500  2.742710  114.105  7.347836  0.311766
  5962.791  5962.800  0.500  2.769479  114.058  7.150850  0.278916
  5963.794  5963.800  0.500  2.810489  113.973  6.858361  0.233377
  5964.795  5964.800  0.500  2.862533  113.927  6.507953  0.174862
  5965.795  5965.800  0.500  2.911023  113.865  6.196538  0.118205
  5966.794  5966.800  0.500  2.941989  113.79  6.003659  0.076367
  5967.795  5967.800  0.500  2.961912  113.756  5.883457  0.051305
  5968.796  5968.800  0.500  2.969815  113.682  5.833327  0.042308
  5969.796  5969.800  0.500  2.962615  113.597  5.871087  0.042530
  5970.798  5970.800  0.500  2.941805  113.545  5.991809  0.046597
  5971.795  5971.800  0.500  2.915659  113.475  6.146735  0.052132
  5972.800  5972.800  0.500  2.889674  113.409  6.304919  0.060440
  5973.800  5973.800  0.500  2.865269  113.324  6.455842  0.071851
  5974.801  5974.800  0.500  2.844257  113.277  6.590157  0.084045
  5975.806  5975.800  0.500  2.828905  113.206  6.687942  0.093228
  5976.800  5976.800  0.500  2.817934  113.119  6.756519  0.097809
  5977.806  5977.800  0.500  2.811556  113.02  6.793816  0.097198
  5978.803  5978.800  0.500  2.807098  112.922  6.818199  0.093557
  5979.804  5979.800  0.500  2.804157  112.818  6.832024  0.091775
  5980.806  5980.800  0.500  2.802262  112.694  6.837425  0.094016
  5981.800  5981.800  0.500  2.801181  112.572  6.837438  0.098303
  5982.803  5982.800  0.500  2.800440  112.397  6.831881  0.105362
  5983.802  5983.800  0.500  2.800246  112.208  6.821692  0.115444
  5984.797  5984.800  0.500  2.798839  111.945  6.815311  0.125572
  5985.797  5985.800  0.500  2.797093  111.576  6.804697  0.133676
  5986.802  5986.800  0.500  2.794348  110.987  6.787357  0.139605
  5987.797  5987.800  0.500  2.791547  109.928  6.741485  0.143278
  5988.802  5988.800  0.500  2.788488  107.41  6.607256  0.143986
  5990.298  5990.290  0.500  2.784606  86.4201  5.336737  0.118879
  5992.303  5992.310  0.500  2.782121  114.102  7.063707  0.159248
  5994.416  5994.420  0.500  2.785041  114.413  7.062294  0.156564
  5996.596  5996.600  0.500  2.791043  113.988  6.993955  0.149670
  5998.862  5998.860  0.500  2.797661  113.673  6.928619  0.142194
  6001.199  6001.190  0.500  2.801486  113.414  6.886454  0.135808
  6003.606  6003.600  0.500  2.799491  113.17  6.885383  0.133257
  6006.090  6006.080  0.500  2.792154  112.976  6.924167  0.133571
  6008.648  6008.640  0.500  2.780805  112.784  6.991307  0.135946
  6011.287  6011.280  0.500  2.770093  112.618  7.056233  0.140095
  6014.005  6014.000  0.500  2.762056  112.417  7.100472  0.143795
  6016.789  6016.790  0.500  2.756184  112.232  7.130545  0.146258
  6019.650  6019.650  0.500  2.751520  112.032  7.151080  0.149047
  6022.588  6022.590  0.500  2.746945  111.856  7.172606  0.151853
  6025.611  6025.610  0.500  2.742161  111.666  7.194752  0.154832
  6028.713  6028.710  0.500  2.738576  111.474  7.208197  0.156892
  6031.883  6031.880  0.500  2.735343  111.244  7.216617  0.157999
  6035.133  6035.130  0.500  2.731531  111.03  7.230203  0.159034
  6038.452  6038.450  0.500  2.727564  110.793  7.243459  0.160462
  6041.857  6041.850  0.500  2.724437  110.564  7.251106  0.161405
  6045.333  6045.330  0.500  2.721588  110.302  7.254581  0.161655
  6048.890  6048.880  0.500  2.718685  110.056  7.259464  0.161577
  6052.518  6052.510  0.500  2.713837  109.757  7.274939  0.161699
  6056.215  6056.210  0.500  2.708203  109.313  7.286440  0.161835
  6059.998  6059.990  0.500  2.702850  108.898  7.297693  0.161888
  6063.857  6063.850  0.500  2.696536  108.448  7.313615  0.162154
  6067.783  6067.780  0.500  2.691060  108.126  7.331889  0.162394
  6071.798  6071.790  0.500  2.684584  107.798  7.357184  0.163500
  6075.884  6075.880  0.500  2.677703  107.437  7.383187  0.165944
  6080.051  6080.040  0.500  2.670886  107.046  7.406596  0.168725
  6084.294  6084.280  0.500  2.664807  106.648  7.424089  0.171340
  6088.602  6088.590  0.500  2.659359  106.217  7.434486  0.173334
  6092.995  6092.980  0.500  2.654149  105.758  7.440975  0.174531
  6097.462  6097.450  0.500  2.648669  105.315  7.450563  0.174895
  6101.999  6101.990  0.500  2.643290  104.805  7.454454  0.174686
  6106.620  6106.610  0.500  2.637636  104.267  7.458251  0.175391
  6111.311  6111.300  0.500  2.630348  103.695  7.471560  0.177743
  6116.078  6116.070  0.500  2.624097  103.109  7.475949  0.180010
  6120.930  6120.920  0.500  2.617923  102.498  7.477674  0.181823
  6125.857  6125.850  0.500  2.611572  101.849  7.477647  0.183755
  6130.859  6130.850  0.500  2.604547  101.15  7.478705  0.185598
  6135.932  6135.920  0.500  2.597607  100.437  7.477721  0.186445
  6141.082  6141.070  0.500  2.590526  99.5775  7.466378  0.186790
  6146.309  6146.300  0.500  2.582552  98.6879  7.458918  0.186898
  6151.618  6151.610  0.500  2.574916  97.7142  7.441936  0.187647
  6157.002  6156.990  0.500  2.566959  96.1929  7.384593  0.187637
  6162.459  6162.450  0.500  2.559452  95.7694  7.407485  0.190530
  6167.991  6167.980  0.500  2.552834  94.005  7.319299  0.190511
  6173.601  6173.590  0.500  2.545725  95.1148  7.458542  0.196512
  6179.280  6179.270  0.500  2.538614  93.8599  7.412661  0.196875
  6185.049  6185.040  0.500  2.531569  92.6554  7.369271  0.197189
  6190.875  6190.870  0.500  2.524339  91.4735  7.328053  0.196930
  6196.797  6196.790  0.500  2.516284  90.2683  7.289987  0.196830
  6202.785  6202.780  0.500  2.508293  89.0218  7.247005  0.197188
  6208.854  6208.850  0.500  2.500223  87.7511  7.201439  0.198152
  6214.995  6214.990  0.500  2.492234  86.4363  7.150439  0.198409
  6221.219  6221.210  0.500  2.484052  85.118  7.099231  0.200106
  6227.505  6227.500  0.500  2.476084  83.7814  7.043654  0.200377
  6233.882  6233.870  0.500  2.468386  82.4016  6.981187  0.200033
  6240.325  6240.320  0.500  2.460419  81.0217  6.919186  0.199270
  6246.851  6246.850  0.500  2.451506  79.6321  6.861399  0.198693
  6253.454  6253.450  0.500  2.443052  78.2066  6.795781  0.198608
  6260.124  6260.120  0.500  2.434077  76.8081  6.734432  0.198946
  6266.874  6266.870  0.500  2.425342  75.3787  6.667083  0.199774
  6273.702  6273.700  0.500  2.417007  73.9312  6.593791  0.200323
  6280.614  6280.610  0.500  2.408604  72.5003  6.520730  0.200625
  6287.598  6287.590  0.500  2.400196  71.0762  6.446628  0.199979
  6294.656  6294.650  0.500  2.391802  69.6611  6.371530  0.199458
  6301.783  6301.780  0.500  2.383001  68.248  6.297468  0.197978
  6308.996  6308.990  0.500  2.374191  66.8878  6.226565  0.197747
  6316.283  6316.280  0.500  2.364926  65.4938  6.153553  0.197587
  6323.647  6323.640  0.500  2.355385  64.1105  6.081332  0.198035
  6331.089  6331.080  0.500  2.345945  62.7768  6.011301  0.198255
  6338.597  6338.590  0.500  2.336828  61.4738  5.940444  0.198877
  6346.191  6346.180  0.500  2.327624  60.1669  5.867911  0.198666
  6353.857  6353.850  0.500  2.318343  58.8777  5.795717  0.198159
  6361.603  6361.590  0.500  2.308918  57.6238  5.726004  0.197357
  6369.423  6369.410  0.500  2.299834  56.3695  5.652478  0.196480
  6377.320  6377.310  0.500  2.289884  55.1378  5.584263  0.196435
  6385.295  6385.280  0.500  2.280507  53.9277  5.513161  0.196204
  6393.354  6393.330  0.500  2.271150  52.7225  5.440622  0.196552
  6401.454  6401.450  0.500  2.261162  51.5618  5.374254  0.197043
  6409.665  6409.650  0.500  2.251489  50.4009  5.304309  0.197054
  6417.911  6417.930  0.500  2.241941  49.262  5.234192  0.196344