File: xdidata/Pr/Pr-L1-Pr-hydroxide.xdi
# XDI/1.0 BlueSky/1.10.0 BMM/2023-1.0-py310-tiled
# Beamline.name: BMM (06BM) -- Beamline for Materials Measurement (NIST)
# Beamline.xray_source: NSLS-II three-pole wiggler
# Beamline.collimation: paraboloid mirror, 5 nm Rh on 30 nm Pt
# Beamline.focusing: not in use
# Beamline.harmonic_rejection: flat mirror, Si stripe, pitch = 7.0 mrad relative to beam
# Beamline.software: Bluesky 1.10.0, Ophyd 1.7.0, DataBroker 2.0.0b13, Python 3.10.8, 2023-1.0-py310-tiled
# Detector.I0: 10 cm N2
# Detector.I1: 25 cm N2
# Detector.I2: 25 cm N2
# Element.symbol: Pr
# Element.edge: L1
# Element.reference: Pr
# Element.reference_material: Pr6O11
# Facility.name: NSLS-II
# Facility.energy: 3.0
# Facility.current: 400.1
# Facility.mode: top-off
# Facility.GUP: 123456
# Facility.SAF: 301027
# Facility.cycle: 2023-2
# Mono.name: Si(111)
# Mono.d_spacing: 3.13519
# Mono.encoder_resolution: 0.0000050 deg/ct
# Mono.angle_offset: 16.0754 deg
# Mono.scan_mode: pseudo channel cut
# Mono.scan_type: step
# Mono.direction: forward in energy
# Sample.name: Pr(OH)3
# Sample.prep: Powder in PEG pellet
# Sample.x: 123.848 mm
# Sample.y: 114.690 mm
# Sample.SDD_position: 205.000 mm
# Scan.experimenters: Bruce Ravel
# Scan.edge_energy: 6834.8
# Scan.start_time: 2023-05-08T19:55:54
# Scan.end_time: 2023-05-08T20:02:01
# Scan.transient_id: 75559
# Scan.uid: 63d65815-5993-4887-8b9f-388c0bd5ba89
# Scan.plot_hint: ln(I0/It)  --  ln($5/$6)
# Column.1: energy eV
# Column.2: requested_energy eV
# Column.3: measurement_time seconds
# Column.4: xmu
# Column.5: I0 nA
# Column.6: It nA
# Column.7: Ir nA
# ///////////
# sample courtesy Martin Stennett, University of Sheffield
# -----------
# energy  requested_energy  measurement_time  xmu  I0  It  Ir
  6634.801  6634.800  0.500  3.865634  151.018  3.163766  0.096680
  6654.817  6654.800  0.500  3.835066  151.319  3.268472  0.103080
  6674.801  6674.800  0.500  3.807854  151.575  3.364316  0.108185
  6694.821  6694.800  0.500  3.768941  151.834  3.503787  0.115777
  6714.813  6714.800  0.500  3.739285  152.075  3.614988  0.121847
  6734.814  6734.800  0.500  3.713219  152.303  3.716017  0.128141
  6754.808  6754.800  0.500  3.679091  152.483  3.849571  0.136592
  6774.811  6774.800  0.500  3.651614  152.667  3.961594  0.143263
  6794.780  6794.800  0.500  3.622317  142.211  3.799988  0.140425
  6806.955  6806.800  0.500  3.604091  152.563  4.151562  0.155651
  6811.100  6810.800  0.500  3.598919  144.497  3.952471  0.148827
  6814.794  6814.800  0.500  3.594412  152.284  4.184273  0.158261
  6818.796  6818.800  0.500  3.590445  152.415  4.204526  0.159723
  6822.797  6822.800  0.500  3.587151  145.962  4.039791  0.153698
  6825.281  6825.300  0.500  3.585067  151.808  4.210360  0.160457
  6826.283  6826.300  0.500  3.584735  152.118  4.220364  0.160955
  6827.285  6827.300  0.500  3.584571  152.216  4.223764  0.160932
  6828.289  6828.300  0.500  3.584966  152.264  4.223445  0.160726
  6829.284  6829.300  0.500  3.585193  152.277  4.222854  0.160473
  6830.285  6830.300  0.500  3.585307  152.299  4.222963  0.160388
  6831.288  6831.300  0.500  3.586202  152.308  4.219450  0.159821
  6832.296  6832.300  0.500  3.587814  152.317  4.212888  0.159296
  6833.290  6833.300  0.500  3.589845  152.324  4.204542  0.159034
  6834.294  6834.300  0.500  3.593646  152.328  4.188708  0.158309
  6835.299  6835.300  0.500  3.600179  152.319  4.161178  0.156669
  6836.298  6836.300  0.500  3.610665  152.324  4.117915  0.154152
  6837.295  6837.300  0.500  3.624557  152.312  4.060778  0.151315
  6838.294  6838.300  0.500  3.636943  152.112  4.005519  0.148011
  6839.302  6839.300  0.500  3.646509  151.548  3.952668  0.144887
  6840.296  6840.300  0.500  3.655517  143.135  3.699771  0.134790
  6841.295  6841.300  0.500  3.667780  144.938  3.700710  0.133983
  6842.295  6842.300  0.500  3.685920  150.701  3.778687  0.135469
  6843.304  6843.300  0.500  3.709504  151.942  3.721013  0.132243
  6844.306  6844.300  0.500  3.740004  152.164  3.614505  0.127188
  6845.296  6845.300  0.500  3.776790  152.289  3.486822  0.120935
  6846.296  6846.300  0.500  3.820285  152.351  3.339769  0.113837
  6847.300  6847.300  0.500  3.866752  152.394  3.189026  0.106867
  6848.295  6848.300  0.500  3.909604  152.424  3.055870  0.100717
  6849.299  6849.300  0.500  3.945546  152.448  2.948440  0.095615
  6850.303  6850.300  0.500  3.968241  152.462  2.882547  0.092546
  6851.302  6851.300  0.500  3.975705  152.478  2.861413  0.091228
  6852.298  6852.300  0.500  3.969834  152.481  2.878318  0.091089
  6853.298  6853.300  0.500  3.955031  152.492  2.921456  0.092200
  6854.305  6854.300  0.500  3.934820  152.5  2.981263  0.093722
  6855.297  6855.300  0.500  3.914459  152.508  3.042738  0.095273
  6856.304  6856.300  0.500  3.894692  152.52  3.103728  0.097069
  6857.302  6857.300  0.500  3.879033  152.537  3.153063  0.098531
  6858.296  6858.300  0.500  3.866010  152.555  3.194762  0.099463
  6859.299  6859.300  0.500  3.857623  152.532  3.221187  0.099987
  6860.799  6860.790  0.500  3.847492  152.345  3.250009  0.100325
  6862.815  6862.810  0.500  3.833907  152.508  3.297987  0.101114
  6864.933  6864.920  0.500  3.815649  152.621  3.361233  0.103503
  6867.117  6867.100  0.500  3.793827  152.655  3.436154  0.107474
  6869.366  6869.360  0.500  3.773618  152.677  3.506800  0.111081
  6871.702  6871.690  0.500  3.758954  152.706  3.559296  0.114276
  6874.110  6874.100  0.500  3.749964  152.721  3.591772  0.116690
  6876.592  6876.580  0.500  3.746879  152.742  3.603374  0.118241
  6879.154  6879.140  0.500  3.751355  152.755  3.587581  0.118654
  6881.789  6881.780  0.500  3.764415  152.753  3.540996  0.117567
  6884.511  6884.500  0.500  3.777744  152.742  3.493847  0.116362
  6887.303  6887.290  0.500  3.785235  152.747  3.467890  0.115970
  6890.164  6890.150  0.500  3.789205  152.767  3.454614  0.115474
  6893.106  6893.090  0.500  3.789197  152.761  3.454505  0.115521
  6896.115  6896.110  0.500  3.788305  152.778  3.457977  0.115736
  6899.215  6899.210  0.500  3.786366  152.773  3.464556  0.115935
  6902.386  6902.380  0.500  3.779866  152.757  3.486787  0.117273
  6905.635  6905.630  0.500  3.769039  152.734  3.524212  0.118753
  6908.958  6908.950  0.500  3.752674  152.709  3.581780  0.120685
  6912.361  6912.350  0.500  3.734351  152.614  3.645757  0.123259
  6915.840  6915.830  0.500  3.718847  152.575  3.701753  0.125531
  6919.390  6919.380  0.500  3.707553  152.492  3.741768  0.127485
  6923.019  6923.010  0.500  3.699794  152.462  3.770181  0.129168
  6926.714  6926.710  0.500  3.695401  152.44  3.786238  0.130817
  6930.499  6930.490  0.500  3.694033  152.408  3.790621  0.131475
  6934.364  6934.350  0.500  3.694189  152.389  3.789559  0.132349
  6938.294  6938.280  0.500  3.693957  152.402  3.790748  0.133475
  6942.302  6942.290  0.500  3.688608  152.383  3.810616  0.135264
  6946.389  6946.380  0.500  3.681456  152.351  3.837147  0.137006
  6950.550  6950.540  0.500  3.673522  152.324  3.867044  0.138848
  6954.792  6954.780  0.500  3.667685  152.321  3.889594  0.140222
  6959.103  6959.090  0.500  3.662782  152.293  3.908000  0.141393
  6963.493  6963.480  0.500  3.658120  152.292  3.926225  0.142633
  6967.966  6967.950  0.500  3.652950  152.279  3.946235  0.143853
  6972.497  6972.490  0.500  3.646166  152.266  3.972760  0.145342
  6977.126  6977.110  0.500  3.637456  152.224  4.006425  0.147508
  6981.808  6981.800  0.500  3.631896  152.187  4.027783  0.149202
  6986.572  6986.570  0.500  3.618820  152.143  4.079615  0.151790
  6991.435  6991.420  0.500  3.608204  152.122  4.122583  0.154333
  6996.361  6996.350  0.500  3.600241  152.078  4.154334  0.156225
  7001.365  7001.350  0.500  3.594990  152.03  4.174889  0.157703
  7006.429  7006.420  0.500  3.590984  152.01  4.191107  0.158937
  7011.583  7011.570  0.500  3.585933  151.945  4.210508  0.160773
  7016.808  7016.800  0.500  3.580144  151.912  4.234054  0.162832
  7022.118  7022.110  0.500  3.571966  151.893  4.268290  0.165422
  7027.498  7027.490  0.500  3.562517  151.846  4.307456  0.168123
  7032.963  7032.950  0.500  3.554311  151.794  4.341466  0.170743
  7038.486  7038.480  0.500  3.546216  151.748  4.375429  0.172937
  7044.103  7044.090  0.500  3.537798  151.703  4.411114  0.175545
  7049.781  7049.770  0.500  3.530173  151.633  4.442829  0.177493
  7055.551  7055.540  0.500  3.521845  151.58  4.478421  0.180041
  7061.385  7061.370  0.500  3.512560  151.572  4.519939  0.182831
  7067.297  7067.290  0.500  3.502687  151.427  4.560436  0.186087
  7073.291  7073.280  0.500  3.492278  151.338  4.605421  0.189090
  7079.364  7079.350  0.500  3.482209  151.261  4.649687  0.192148
  7085.501  7085.490  0.500  3.472960  151.107  4.688100  0.195273
  7091.720  7091.710  0.500  3.465120  151.073  4.723943  0.197966
  7098.014  7098.000  0.500  3.457541  151.011  4.757912  0.200709
  7104.380  7104.370  0.500  3.450277  150.927  4.789954  0.203201
  7110.828  7110.820  0.500  3.441897  150.754  4.824710  0.206244
  7117.359  7117.350  0.500  3.433005  150.425  4.857196  0.209036
  7123.963  7123.950  0.500  3.422547  150.112  4.898026  0.212415
  7130.630  7130.620  0.500  3.412105  149.658  4.934468  0.215881
  7137.378  7137.370  0.500  3.402173  149.495  4.978301  0.219471
  7144.209  7144.200  0.500  3.393196  149.466  5.022243  0.222938
  7151.115  7151.110  0.500  3.383992  149.42  5.067119  0.226765
  7158.097  7158.090  0.500  3.374946  149.315  5.109567  0.229787
  7165.155  7165.150  0.500  3.364666  149.122  5.155666  0.233350
  7172.284  7172.280  0.500  3.354756  148.912  5.199706  0.237258
  7179.498  7179.490  0.500  3.344278  148.754  5.248887  0.241685
  7186.790  7186.780  0.500  3.333026  148.589  5.302378  0.246158
  7194.142  7194.140  0.500  3.322370  148.763  5.365459  0.251163
  7201.582  7201.580  0.500  3.312921  148.67  5.413019  0.255193
  7209.093  7209.090  0.500  3.303466  148.421  5.455287  0.259432
  7216.687  7216.680  0.500  3.293485  148.19  5.501436  0.263517
  7224.357  7224.350  0.500  3.283374  147.949  5.548319  0.267720
  7232.095  7232.090  0.500  3.273101  147.868  5.602521  0.272415
  7239.918  7239.910  0.500  3.262215  147.658  5.655802  0.277100
  7247.818  7247.810  0.500  3.250960  147.369  5.708648  0.282166
  7255.790  7255.780  0.500  3.239484  147.348  5.773684  0.287825
  7263.838  7263.830  0.500  3.229878  137.063  5.422514  0.272600
  7271.957  7271.950  0.500  3.218442  147.253  5.892665  0.298771
  7280.162  7280.150  0.500  3.208087  147.179  5.951031  0.304307
  7288.440  7288.430  0.500  3.197132  146.851  6.003146  0.309447
  7296.793  7296.780  0.500  3.186469  146.641  6.058844  0.314712
  7305.231  7305.210  0.500  3.174987  146.515  6.123547  0.320719
  7313.725  7313.710  0.500  3.164041  146.255  6.179968  0.326651
  7322.304  7322.290  0.500  3.152313  145.988  6.241448  0.332819
  7330.964  7330.950  0.500  3.141317  145.738  6.299664  0.339012
  7339.725  7339.690  0.500  3.129468  143.102  6.259425  0.339621
  7348.535  7348.500  0.500  3.118778  145.164  6.417869  0.351548
  7357.406  7357.380  0.500  3.107389  144.898  6.479501  0.357527
  7366.357  7366.340  0.500  3.095823  144.623  6.542417  0.364154
  7375.389  7375.380  0.500  3.084485  144.348  6.604427  0.370704
  7379.918  7379.930  0.500  3.078595  144.201  6.636710  0.374401