File: xdidata/Co/Co-K-CoO.xdi
# XDI/1.0 BlueSky/1.10.0 BMM/2023-1.0-py310-tiled
# Beamline.name: BMM (06BM) -- Beamline for Materials Measurement (NIST)
# Beamline.xray_source: NSLS-II three-pole wiggler
# Beamline.collimation: paraboloid mirror, 5 nm Rh on 30 nm Pt
# Beamline.focusing: not in use
# Beamline.harmonic_rejection: flat mirror, Si stripe, pitch = 7.0 mrad relative to beam
# Beamline.software: Bluesky 1.10.0, Ophyd 1.7.0, DataBroker 2.0.0b13, Python 3.10.8, 2023-1.0-py310-tiled
# Detector.I0: 10 cm N2
# Detector.I1: 25 cm N2
# Detector.I2: 25 cm N2
# Element.symbol: Co
# Element.edge: K
# Element.reference: Co
# Element.reference_material: Co foil
# Facility.name: NSLS-II
# Facility.energy: 3.0
# Facility.current: 400.8
# Facility.mode: top-off
# Facility.GUP: 301027
# Facility.SAF: 310583
# Facility.cycle: 2023-2
# Mono.name: Si(111)
# Mono.d_spacing: 3.13519
# Mono.encoder_resolution: 0.0000050 deg/ct
# Mono.angle_offset: 16.0754 deg
# Mono.scan_mode: pseudo channel cut
# Mono.scan_type: step
# Mono.direction: forward in energy
# Sample.name: CoO
# Sample.prep: powder on tape
# Sample.x: 117.785 mm
# Sample.y: 114.695 mm
# Sample.SDD_position: 205.000 mm
# Scan.experimenters: Bruce Ravel
# Scan.edge_energy: 7708.9
# Scan.start_time: 2023-06-23T14:53:53
# Scan.end_time: 2023-06-23T15:01:44
# Scan.transient_id: 84828
# Scan.uid: c9c436cf-da2a-4545-b064-bacc79489395
# Scan.plot_hint: ln(I0/It)  --  ln($5/$6)
# Column.1: energy eV
# Column.2: requested_energy eV
# Column.3: measurement_time seconds
# Column.4: xmu
# Column.5: I0 nA
# Column.6: It nA
# Column.7: Ir nA
# ///////////
# BMM standards collection
# -----------
# energy  requested_energy  measurement_time  xmu  I0  It  Ir
  7508.911  7508.900  0.500  1.412910  148.11  36.0551  13.7774
  7538.951  7538.900  0.500  1.388480  147.813  36.8725  14.2503
  7568.920  7568.900  0.500  1.364869  147.438  37.6577  14.7171
  7598.920  7598.900  0.500  1.341726  146.841  38.3833  15.1677
  7628.920  7628.900  0.500  1.318631  146.205  39.1099  15.6196
  7658.916  7658.900  0.500  1.297362  145.738  39.8231  16.0667
  7680.906  7680.900  0.500  1.284347  145.305  40.225  16.3321
  7686.896  7686.900  0.500  1.281942  144.893  40.2074  16.3456
  7692.891  7692.900  0.500  1.280492  145.154  40.3383  16.4105
  7698.889  7698.900  0.500  1.281612  145.012  40.2539  16.3664
  7699.776  7699.800  0.500  1.282042  144.966  40.2238  16.3483
  7700.684  7700.700  0.500  1.282701  144.932  40.1879  16.3273
  7701.585  7701.600  0.500  1.283554  144.886  40.1409  16.2984
  7702.483  7702.500  0.500  1.284456  144.843  40.0928  16.2673
  7703.381  7703.400  0.500  1.285619  144.808  40.0365  16.2262
  7704.285  7704.300  0.500  1.287355  144.764  39.9548  16.1704
  7705.194  7705.200  0.500  1.289418  144.632  39.8361  16.0904
  7706.096  7706.100  0.500  1.291926  144.02  39.5681  15.9353
  7706.993  7707.000  0.500  1.295616  141.32  38.6834  15.5011
  7707.892  7707.900  0.500  1.301684  144.714  39.3727  15.6377
  7708.790  7708.800  0.500  1.315250  144.844  38.8771  15.0897
  7709.702  7709.700  0.500  1.335681  144.797  38.0785  13.934
  7710.600  7710.600  0.500  1.347221  144.724  37.6228  12.8275
  7711.495  7711.500  0.500  1.343263  144.711  37.7684  12.098
  7712.393  7712.400  0.500  1.349146  144.669  37.5361  11.4903
  7713.294  7713.300  0.500  1.371967  144.613  36.675  10.9683
  7714.200  7714.200  0.500  1.423926  144.59  34.8125  10.3163
  7715.099  7715.100  0.500  1.505908  144.564  32.0665  9.416158
  7715.998  7716.000  0.500  1.615447  144.534  28.7336  8.250097
  7716.897  7716.900  0.500  1.781304  144.467  24.3309  6.753801
  7717.799  7717.800  0.500  1.990291  144.449  19.7397  5.296597
  7718.702  7718.700  0.500  2.186519  144.381  16.215  4.206437
  7719.596  7719.600  0.500  2.360003  144.288  13.6237  3.405116
  7720.497  7720.500  0.500  2.541174  143.694  11.3194  2.715843
  7721.407  7721.400  0.500  2.814639  140.664  8.429461  1.928480
  7722.302  7722.300  0.500  3.166771  144.195  6.076302  1.315776
  7723.201  7723.200  0.500  3.424993  144.435  4.701294  0.960889
  7724.096  7724.100  0.500  3.576416  144.383  4.039239  0.780717
  7725.005  7725.000  0.500  3.703819  144.334  3.554854  0.657770
  7725.904  7725.900  0.500  3.880169  144.307  2.979551  0.538369
  7726.798  7726.800  0.500  4.024328  144.251  2.578542  0.462339
  7727.697  7727.700  0.500  3.966084  144.232  2.732841  0.490978
  7728.594  7728.600  0.500  3.750412  144.211  3.390117  0.614008
  7729.499  7729.500  0.500  3.482505  144.186  4.430888  0.809025
  7730.402  7730.400  0.500  3.268405  144.161  5.487811  1.004549
  7731.292  7731.300  0.500  3.141521  144.128  6.228783  1.134397
  7732.202  7732.200  0.500  3.072008  144.076  6.674741  1.196308
  7733.103  7733.100  0.500  3.004367  144.29  7.152492  1.256097
  7733.901  7733.900  0.500  2.915224  144.283  7.818969  1.354207
  7736.929  7736.910  0.500  2.690304  144.163  9.782924  1.725170
  7740.121  7740.100  0.500  2.864951  142.172  8.101790  1.463264
  7743.469  7743.460  0.500  2.951873  144.137  7.529994  1.391034
  7746.991  7746.980  0.500  2.790566  144.047  8.842564  1.645079
  7750.683  7750.680  0.500  2.709805  143.952  9.579957  1.745007
  7754.554  7754.550  0.500  2.707642  143.86  9.594571  1.658756
  7758.605  7758.600  0.500  2.793708  143.777  8.798252  1.458256
  7762.826  7762.810  0.500  2.860040  143.667  8.227289  1.401164
  7767.206  7767.190  0.500  3.072913  143.571  6.645343  1.204537
  7771.769  7771.750  0.500  3.205518  143.492  5.816865  1.099635
  7776.492  7776.480  0.500  3.212477  143.345  5.770587  1.101402
  7781.386  7781.380  0.500  3.045777  143.24  6.812400  1.314131
  7786.463  7786.450  0.500  2.897197  143.125  7.897298  1.503357
  7791.713  7791.690  0.500  2.797849  143.004  8.714789  1.625782
  7797.118  7797.110  0.500  2.773411  142.886  8.923051  1.619999
  7802.702  7802.690  0.500  2.854108  142.77  8.224569  1.431483
  7808.464  7808.450  0.500  2.871483  142.641  8.075631  1.367783
  7814.396  7814.380  0.500  2.881560  142.507  7.987148  1.392485
  7820.500  7820.480  0.500  2.967678  142.319  7.318401  1.340500
  7826.760  7826.750  0.500  2.959574  142.222  7.372934  1.408415
  7833.206  7833.190  0.500  2.838798  141.928  8.302209  1.663665
  7839.809  7839.800  0.500  2.748513  140.997  9.027076  1.805880
  7846.611  7846.590  0.500  2.874057  140.684  7.944362  1.543866
  7853.565  7853.550  0.500  2.915286  141.521  7.668788  1.481734
  7860.682  7860.670  0.500  2.850185  141.395  8.177395  1.574302
  7867.990  7867.970  0.500  2.880769  141.215  7.920972  1.437330
  7875.468  7875.450  0.500  2.910493  141.059  7.680492  1.357211
  7883.106  7883.090  0.500  2.863597  140.885  8.039331  1.448887
  7890.920  7890.900  0.500  2.744877  140.676  9.039336  1.763262
  7898.912  7898.890  0.500  2.663956  140.096  9.760771  2.046328
  7907.068  7907.050  0.500  2.732206  140.245  9.126511  1.880783
  7915.383  7915.370  0.500  2.812980  140.028  8.405304  1.676945
  7923.894  7923.870  0.500  2.818934  139.823  8.343167  1.658080
  7932.571  7932.550  0.500  2.793296  139.542  8.542630  1.721437
  7941.400  7941.390  0.500  2.769022  139.506  8.750284  1.774530
  7950.414  7950.400  0.500  2.736094  138.579  8.983106  1.764294
  7959.609  7959.590  0.500  2.721299  138.827  9.133327  1.771959
  7968.965  7968.950  0.500  2.695130  138.524  9.355057  1.872956
  7978.482  7978.470  0.500  2.659409  137.991  9.657960  2.020681
  7988.184  7988.170  0.500  2.665956  137.637  9.570326  2.031082
  7998.093  7998.050  0.500  2.688501  137.4  9.340802  1.996560
  8008.157  8008.090  0.500  2.691628  137.242  9.300941  1.992104
  8018.334  8018.300  0.500  2.670865  137.141  9.489137  2.019461
  8028.682  8028.690  0.500  2.618740  136.878  9.977701  2.119738
  8039.216  8039.250  0.500  2.609596  136.549  10.0452  2.121388
  8050.063  8049.980  0.500  2.598980  136.2  10.1264  2.143442
  8060.901  8060.880  0.500  2.587685  136.068  10.2315  2.212091
  8071.935  8071.950  0.500  2.594105  135.594  10.1306  2.217885
  8083.167  8083.190  0.500  2.597349  135.302  10.076  2.226825
  8094.572  8094.610  0.500  2.577704  135.098  10.2605  2.305217
  8106.153  8106.190  0.500  2.534988  134.657  10.6732  2.412606
  8117.935  8117.950  0.500  2.518799  134.23  10.8131  2.450806
  8129.880  8129.880  0.500  2.518461  133.868  10.7875  2.444506
  8141.943  8141.980  0.500  2.502737  133.433  10.9229  2.476624
  8154.229  8154.250  0.500  2.488956  133.001  11.0387  2.513215
  8166.664  8166.690  0.500  2.480565  133.078  11.1381  2.569663
  8179.298  8179.310  0.500  2.478647  132.815  11.1374  2.595304
  8192.074  8192.090  0.500  2.462814  132.385  11.2785  2.643667
  8205.006  8205.050  0.500  2.443592  131.909  11.4561  2.713704
  8218.195  8218.180  0.500  2.423689  131.418  11.6429  2.784263
  8231.453  8231.480  0.500  2.409620  130.905  11.7618  2.836969
  8244.925  8244.950  0.500  2.394243  130.445  11.902  2.881796
  8258.588  8258.600  0.500  2.383850  129.924  11.9783  2.904553
  8272.383  8272.410  0.500  2.381342  129.378  11.958  2.909350
  8286.367  8286.400  0.500  2.362877  128.793  12.1258  2.983101
  8300.529  8300.560  0.500  2.345860  128.226  12.2796  3.049039
  8314.863  8314.890  0.500  2.331608  126.335  12.2721  3.070300
  8329.367  8329.390  0.500  2.315375  127.05  12.5436  3.161959
  8344.037  8344.060  0.500  2.302859  126.162  12.6128  3.198219
  8358.885  8358.900  0.500  2.290382  125.19  12.6727  3.235312
  8373.900  8373.920  0.500  2.279430  124.664  12.7585  3.277281
  8389.130  8389.100  0.500  2.265231  123.952  12.867  3.323932
  8404.436  8404.460  0.500  2.248900  123.215  13.0011  3.380230
  8420.003  8419.990  0.500  2.235126  122.479  13.1026  3.429538
  8435.663  8435.690  0.500  2.220710  121.684  13.2066  3.485355
  8451.536  8451.560  0.500  2.205164  120.927  13.3301  3.545717
  8467.578  8467.610  0.500  2.190705  120.082  13.4298  3.599746
  8483.779  8483.820  0.500  2.178012  119.224  13.5041  3.648564
  8500.175  8500.210  0.500  2.167326  118.314  13.545  3.685570
  8516.744  8516.770  0.500  2.151931  117.294  13.6365  3.736156
  8533.474  8533.500  0.500  2.136543  115.777  13.6689  3.769706
  8550.375  8550.400  0.500  2.121517  115.461  13.838  3.843080
  8561.735  8561.760  0.500  2.112028  114.673  13.8745  3.872917