File: xdidata/Co/Co-K-CobaltFoil.xdi
# XDI/1.0 BlueSky/1.10.0 BMM/2023-1.0-py310-tiled
# Beamline.name: BMM (06BM) -- Beamline for Materials Measurement (NIST)
# Beamline.xray_source: NSLS-II three-pole wiggler
# Beamline.collimation: paraboloid mirror, 5 nm Rh on 30 nm Pt
# Beamline.focusing: not in use
# Beamline.harmonic_rejection: flat mirror, Si stripe, pitch = 7.0 mrad relative to beam
# Beamline.software: Bluesky 1.10.0, Ophyd 1.7.0, DataBroker 2.0.0b13, Python 3.10.8, 2023-1.0-py310-tiled
# Detector.I0: 10 cm N2
# Detector.I1: 25 cm N2
# Detector.I2: 25 cm N2
# Element.symbol: Co
# Element.edge: K
# Element.reference: Co
# Element.reference_material: Co foil
# Facility.name: NSLS-II
# Facility.energy: 3.0
# Facility.current: 399.2
# Facility.mode: top-off
# Facility.GUP: 301027
# Facility.SAF: 310583
# Facility.cycle: 2023-2
# Mono.name: Si(111)
# Mono.d_spacing: 3.13519
# Mono.encoder_resolution: 0.0000050 deg/ct
# Mono.angle_offset: 16.0754 deg
# Mono.scan_mode: pseudo channel cut
# Mono.scan_type: step
# Mono.direction: forward in energy
# Sample.name: Co foil
# Sample.prep: reference foil
# Sample.x: 109.138 mm
# Sample.y: 153.150 mm
# Sample.SDD_position: 205.000 mm
# Scan.experimenters: Bruce Ravel
# Scan.edge_energy: 7708.9
# Scan.start_time: 2023-05-28T13:59:46
# Scan.end_time: 2023-05-28T14:07:54
# Scan.transient_id: 78742
# Scan.uid: be5c8c8e-dd20-4abb-873c-5684a41c70ff
# Scan.plot_hint: ln(It/Ir)  --  ln($6/$7)
# Column.1: energy eV
# Column.2: requested_energy eV
# Column.3: measurement_time seconds
# Column.4: xmu
# Column.5: I0 nA
# Column.6: It nA
# Column.7: Ir nA
# ///////////
# standard reference foil
# -----------
# energy  requested_energy  measurement_time  xmu  I0  It  Ir
  7508.918  7508.900  0.500  1.097293  145.256  158.953  53.0542
  7538.985  7538.900  0.500  1.084454  144.972  159.758  54.0119
  7568.915  7568.900  0.500  1.071650  144.633  160.45  54.9451
  7598.920  7598.900  0.500  1.059117  144.153  160.987  55.824
  7628.915  7628.900  0.500  1.046959  143.84  161.698  56.7567
  7658.871  7658.900  0.500  1.035373  143.986  162.915  57.8502
  7680.883  7680.900  0.500  1.027990  143.697  163.366  58.44
  7686.879  7686.900  0.500  1.026427  143.411  163.274  58.4987
  7692.881  7692.900  0.500  1.025394  143.579  163.631  58.687
  7698.889  7698.900  0.500  1.025638  143.45  163.739  58.7116
  7699.779  7699.800  0.500  1.025931  143.946  164.331  58.9063
  7700.681  7700.700  0.500  1.026376  143.913  164.332  58.8805
  7701.585  7701.600  0.500  1.026950  143.876  164.332  58.847
  7702.483  7702.500  0.500  1.027675  143.819  164.293  58.7903
  7703.386  7703.400  0.500  1.028710  143.77  164.264  58.7193
  7704.293  7704.300  0.500  1.030086  143.691  164.134  58.5918
  7705.192  7705.200  0.500  1.032011  143.554  164.106  58.4692
  7706.088  7706.100  0.500  1.034874  142.944  163.386  58.0464
  7706.990  7707.000  0.500  1.039528  140.17  160.299  56.6853
  7707.892  7707.900  0.500  1.048358  143.641  164.278  57.5816
  7708.795  7708.800  0.500  1.070705  143.849  164.544  56.4001
  7709.697  7709.700  0.500  1.127619  143.787  164.477  53.2581
  7710.595  7710.600  0.500  1.197610  143.73  164.419  49.6405
  7711.490  7711.500  0.500  1.260121  143.682  164.422  46.6334
  7712.401  7712.400  0.500  1.306872  143.642  164.379  44.4918
  7713.302  7713.300  0.500  1.330674  143.617  164.402  43.4514
  7714.198  7714.200  0.500  1.340105  143.582  164.449  43.0556
  7715.094  7715.100  0.500  1.349146  143.558  164.42  42.6607
  7715.993  7716.000  0.500  1.371423  143.505  164.411  41.7185
  7716.900  7716.900  0.500  1.405166  143.466  164.374  40.3254
  7717.802  7717.800  0.500  1.438366  143.423  164.352  39.0033
  7718.697  7718.700  0.500  1.470479  143.367  164.333  37.7663
  7719.594  7719.600  0.500  1.506830  143.232  164.182  36.3845
  7720.497  7720.500  0.500  1.547981  142.595  163.477  34.7678
  7721.404  7721.400  0.500  1.596107  139.642  160.162  32.4623
  7722.308  7722.300  0.500  1.651017  143.219  164.3  31.5217
  7723.201  7723.200  0.500  1.706307  143.508  164.705  29.8997
  7724.099  7724.100  0.500  1.761258  143.461  164.62  28.2864
  7725.000  7725.000  0.500  1.804537  143.415  164.612  27.0871
  7725.897  7725.900  0.500  1.827310  143.387  164.634  26.4807
  7726.808  7726.800  0.500  1.834332  143.338  164.58  26.2868
  7727.702  7727.700  0.500  1.831332  143.312  164.576  26.365
  7728.594  7728.600  0.500  1.823987  143.297  164.606  26.5643
  7729.507  7729.500  0.500  1.816326  143.277  164.589  26.7658
  7730.399  7730.400  0.500  1.813427  143.246  164.624  26.8492
  7731.302  7731.300  0.500  1.818981  143.222  164.617  26.6994
  7732.197  7732.200  0.500  1.834677  143.193  164.606  26.2819
  7733.105  7733.100  0.500  1.855365  143.167  164.596  25.7421
  7733.904  7733.900  0.500  1.870577  143.138  164.59  25.3526
  7736.924  7736.910  0.500  1.854644  143.072  164.575  25.7574
  7740.111  7740.100  0.500  1.829687  141.403  162.79  26.1219
  7743.474  7743.460  0.500  1.806884  143.034  164.797  27.0539
  7746.991  7746.980  0.500  1.799632  142.943  164.784  27.2487
  7750.688  7750.680  0.500  1.820163  142.849  164.779  26.6941
  7754.561  7754.550  0.500  1.872066  142.771  164.898  25.3623
  7758.615  7758.600  0.500  1.914241  142.692  164.91  24.3166
  7762.818  7762.810  0.500  1.887143  142.597  164.978  24.9948
  7767.203  7767.190  0.500  1.824047  142.52  164.981  26.6232
  7771.758  7771.750  0.500  1.781452  142.442  165.069  27.7965
  7776.487  7776.480  0.500  1.771915  142.34  165.074  28.0638
  7781.384  7781.380  0.500  1.761563  142.257  165.168  28.3719
  7786.458  7786.450  0.500  1.774331  142.147  165.179  28.0139
  7791.692  7791.690  0.500  1.793826  142.065  165.28  27.4899
  7797.118  7797.110  0.500  1.821339  142.455  165.961  26.854
  7802.695  7802.690  0.500  1.862544  142.42  166.098  25.7913
  7808.462  7808.450  0.500  1.889855  142.336  166.134  25.1018
  7814.386  7814.380  0.500  1.860768  142.219  166.237  25.8587
  7820.492  7820.480  0.500  1.811417  142.115  166.33  27.182
  7826.757  7826.750  0.500  1.769666  142.012  166.412  28.3549
  7833.221  7833.190  0.500  1.721304  141.742  166.316  29.7427
  7839.791  7839.800  0.500  1.722598  140.821  165.439  29.5476
  7846.595  7846.590  0.500  1.751525  140.595  165.418  28.7016
  7853.555  7853.550  0.500  1.756682  141.462  166.651  28.7667
  7860.682  7860.670  0.500  1.758742  141.297  166.69  28.7144
  7867.982  7867.970  0.500  1.817626  141.174  166.773  27.0858
  7875.460  7875.450  0.500  1.843994  141.031  166.84  26.3915
  7883.103  7883.090  0.500  1.825010  140.875  166.921  26.9104
  7890.909  7890.900  0.500  1.746287  140.723  166.989  29.1263
  7898.901  7898.890  0.500  1.673410  140.316  166.75  31.2834
  7907.063  7907.050  0.500  1.689626  140.345  167.061  30.8376
  7915.383  7915.370  0.500  1.721986  140.179  167.109  29.8642
  7923.899  7923.870  0.500  1.725537  140.003  167.133  29.7626
  7932.566  7932.550  0.500  1.710947  139.728  167.096  30.1934
  7941.403  7941.390  0.500  1.703975  139.737  167.377  30.4556
  7950.414  7950.400  0.500  1.735761  138.863  166.615  29.3685
  7959.609  7959.590  0.500  1.747848  139.128  167.247  29.1257
  7968.970  7968.950  0.500  1.716623  138.836  167.119  30.0265
  7978.479  7978.470  0.500  1.672130  138.313  166.803  31.3334
  7988.184  7988.170  0.500  1.657642  138.012  166.784  31.787
  7998.071  7998.050  0.500  1.650168  137.749  166.749  32.0187
  8008.113  8008.090  0.500  1.647374  137.634  166.902  32.1378
  8018.315  8018.300  0.500  1.653083  137.605  167.173  32.0067
  8028.713  8028.690  0.500  1.654736  137.346  167.145  31.9486
  8039.257  8039.250  0.500  1.660095  137.038  167.162  31.781
  8049.988  8049.980  0.500  1.657671  136.721  167.04  31.8349
  8060.885  8060.880  0.500  1.636282  136.486  167.042  32.5235
  8071.960  8071.950  0.500  1.623227  136.167  167.004  32.9435
  8083.198  8083.190  0.500  1.613298  135.962  167.09  33.2892
  8094.625  8094.610  0.500  1.596567  135.675  167.049  33.8426
  8106.204  8106.190  0.500  1.589680  135.26  166.895  34.045
  8117.966  8117.950  0.500  1.586859  134.902  166.776  34.1168
  8129.891  8129.880  0.500  1.586534  134.499  166.634  34.0989
  8141.991  8141.980  0.500  1.585545  134.108  166.495  34.1042
  8154.260  8154.250  0.500  1.581169  133.718  166.302  34.214
  8166.707  8166.690  0.500  1.567253  133.32  166.179  34.6678
  8179.316  8179.310  0.500  1.556629  132.897  166.012  35.0029
  8192.103  8192.090  0.500  1.550438  132.471  165.828  35.1812
  8205.102  8205.050  0.500  1.539411  132.042  165.637  35.5303
  8218.230  8218.180  0.500  1.529554  131.588  165.407  35.8325
  8231.500  8231.480  0.500  1.520597  131.146  165.235  36.1174
  8245.024  8244.950  0.500  1.516005  130.674  164.998  36.2315
  8258.667  8258.600  0.500  1.514574  130.161  164.699  36.2176
  8272.397  8272.410  0.500  1.510471  129.655  164.429  36.307
  8286.381  8286.400  0.500  1.498723  129.302  164.347  36.7176
  8300.570  8300.560  0.500  1.489019  129  164.331  37.072
  8314.919  8314.890  0.500  1.481108  126.95  162.068  36.852
  8329.385  8329.390  0.500  1.473027  127.852  163.613  37.5051
  8344.049  8344.060  0.500  1.466316  126.983  162.85  37.5816
  8358.879  8358.900  0.500  1.459387  126.056  162.032  37.6529
  8373.897  8373.920  0.500  1.452505  125.525  161.709  37.8373
  8389.112  8389.100  0.500  1.446725  124.796  161.148  37.9247
  8404.478  8404.460  0.500  1.439763  124.082  160.587  38.0566
  8420.021  8419.990  0.500  1.432307  123.352  160.026  38.2074
  8435.705  8435.690  0.500  1.423936  122.6  159.383  38.3738
  8451.588  8451.560  0.500  1.415385  121.799  158.722  38.5428
  8467.664  8467.610  0.500  1.407251  120.939  157.933  38.6645
  8483.795  8483.820  0.500  1.398982  120.063  157.203  38.8053
  8500.230  8500.210  0.500  1.391152  119.101  156.278  38.8801
  8516.750  8516.770  0.500  1.383586  118.064  155.308  38.9322
  8533.527  8533.500  0.500  1.376683  115.71  152.55  38.5059
  8550.381  8550.400  0.500  1.368973  115.91  153.191  38.967
  8561.808  8561.760  0.500  1.363883  115.11  152.369  38.9556