File: xdidata/Co/Co-K-CobaltAluminate.xdi
# XDI/1.0 BlueSky/1.10.0 BMM/2023-1.0-py310-tiled
# Beamline.name: BMM (06BM) -- Beamline for Materials Measurement (NIST)
# Beamline.xray_source: NSLS-II three-pole wiggler
# Beamline.collimation: paraboloid mirror, 5 nm Rh on 30 nm Pt
# Beamline.focusing: not in use
# Beamline.harmonic_rejection: flat mirror, Si stripe, pitch = 7.0 mrad relative to beam
# Beamline.software: Bluesky 1.10.0, Ophyd 1.7.0, DataBroker 2.0.0b13, Python 3.10.8, 2023-1.0-py310-tiled
# Detector.I0: 10 cm N2
# Detector.I1: 25 cm N2
# Detector.I2: 25 cm N2
# Element.symbol: Co
# Element.edge: K
# Element.reference: Co
# Element.reference_material: Co foil
# Facility.name: NSLS-II
# Facility.energy: 3.0
# Facility.current: 399.4
# Facility.mode: top-off
# Facility.GUP: 301027
# Facility.SAF: 310583
# Facility.cycle: 2023-2
# Mono.name: Si(111)
# Mono.d_spacing: 3.13519
# Mono.encoder_resolution: 0.0000050 deg/ct
# Mono.angle_offset: 16.0754 deg
# Mono.scan_mode: pseudo channel cut
# Mono.scan_type: step
# Mono.direction: forward in energy
# Sample.name: CoAlO3
# Sample.prep: powder on tape
# Sample.x: 117.785 mm
# Sample.y: 114.695 mm
# Sample.SDD_position: 205.000 mm
# Scan.experimenters: Bruce Ravel
# Scan.edge_energy: 7708.9
# Scan.start_time: 2023-06-23T15:11:46
# Scan.end_time: 2023-06-23T15:20:04
# Scan.transient_id: 84838
# Scan.uid: fd264746-c7ac-4669-8114-d70a649346df
# Scan.plot_hint: ln(I0/It)  --  ln($5/$6)
# Column.1: energy eV
# Column.2: requested_energy eV
# Column.3: measurement_time seconds
# Column.4: xmu
# Column.5: I0 nA
# Column.6: It nA
# Column.7: Ir nA
# ///////////
# BMM standards collection
# -----------
# energy  requested_energy  measurement_time  xmu  I0  It  Ir
  7508.899  7508.900  0.500  1.171692  147.423  45.6778  17.4648
  7538.920  7538.900  0.500  1.150318  147.05  46.5467  17.9988
  7568.901  7568.900  0.500  1.128740  146.642  47.43  18.5462
  7598.920  7598.900  0.500  1.107875  145.991  48.2148  19.0627
  7628.913  7628.900  0.500  1.087536  145.528  49.0495  19.5983
  7658.914  7658.900  0.500  1.067262  145.035  49.8845  20.1327
  7680.901  7680.900  0.500  1.052910  144.566  50.4422  20.4871
  7686.896  7686.900  0.500  1.049189  144.171  50.4919  20.534
  7692.894  7692.900  0.500  1.045573  144.45  50.7728  20.6635
  7698.901  7698.900  0.500  1.042284  144.244  50.8674  20.6867
  7699.776  7699.800  0.500  1.041908  144.222  50.8788  20.6858
  7700.676  7700.700  0.500  1.041532  144.196  50.8889  20.6818
  7701.577  7701.600  0.500  1.041174  144.154  50.8923  20.6718
  7702.483  7702.500  0.500  1.040741  144.061  50.8815  20.6489
  7703.381  7703.400  0.500  1.040444  144.042  50.8897  20.6318
  7704.288  7704.300  0.500  1.040169  143.958  50.8739  20.5968
  7705.189  7705.200  0.500  1.040056  143.868  50.8478  20.5451
  7706.086  7706.100  0.500  1.039985  143.345  50.6666  20.4128
  7706.988  7707.000  0.500  1.040286  140.458  49.6312  19.8992
  7707.895  7707.900  0.500  1.041309  143.901  50.7961  20.1824
  7708.797  7708.800  0.500  1.045274  144.053  50.6483  19.6723
  7709.695  7709.700  0.500  1.057384  143.98  50.0134  18.3426
  7710.595  7710.600  0.500  1.057379  143.927  49.9951  17.0827
  7711.495  7711.500  0.500  1.048869  143.883  50.4071  16.1742
  7712.401  7712.400  0.500  1.047063  143.835  50.4814  15.4668
  7713.299  7713.300  0.500  1.046381  144.37  50.7037  15.1705
  7714.195  7714.200  0.500  1.048416  144.359  50.5968  14.9996
  7715.102  7715.100  0.500  1.053008  144.322  50.3522  14.7935
  7716.006  7716.000  0.500  1.062698  144.275  49.8501  14.3137
  7716.890  7716.900  0.500  1.081077  144.224  48.925  13.5859
  7717.802  7717.800  0.500  1.117591  144.177  47.1555  12.657
  7718.707  7718.700  0.500  1.173068  144.129  44.5958  11.5778
  7719.594  7719.600  0.500  1.215915  143.998  42.6866  10.6805
  7720.502  7720.500  0.500  1.230557  143.427  41.8992  10.0575
  7721.397  7721.400  0.500  1.242596  140.357  40.5119  9.274065
  7722.295  7722.300  0.500  1.268690  143.907  40.4666  8.774625
  7723.198  7723.200  0.500  1.294801  144.121  39.4823  8.098811
  7724.107  7724.100  0.500  1.304514  144.077  39.0886  7.584516
  7725.000  7725.000  0.500  1.308004  144.048  38.9448  7.243261
  7725.891  7725.900  0.500  1.322709  144.007  38.3652  6.973854
  7726.801  7726.800  0.500  1.355054  143.938  37.1263  6.697303
  7727.705  7727.700  0.500  1.397456  143.933  35.5838  6.433224
  7728.597  7728.600  0.500  1.425379  143.886  34.5927  6.296822
  7729.494  7729.500  0.500  1.428074  143.858  34.4928  6.321108
  7730.402  7730.400  0.500  1.411379  143.833  35.0676  6.443021
  7731.299  7731.300  0.500  1.385373  143.791  35.9809  6.572936
  7732.197  7732.200  0.500  1.358041  143.763  36.9707  6.650678
  7733.095  7733.100  0.500  1.341699  143.725  37.57  6.623619
  7733.904  7733.900  0.500  1.333372  143.709  37.8799  6.579395
  7736.899  7736.910  0.500  1.304796  143.549  38.9344  6.872688
  7740.131  7740.100  0.500  1.304307  141.603  38.4254  6.955740
  7743.446  7743.460  0.500  1.317476  143.473  38.4237  7.111908
  7746.978  7746.980  0.500  1.273608  143.38  40.1206  7.478388
  7750.683  7750.680  0.500  1.240978  143.277  41.4216  7.561078
  7754.551  7754.550  0.500  1.241820  143.193  41.3624  7.168146
  7758.597  7758.600  0.500  1.250134  143.101  40.9936  6.809235
  7762.805  7762.810  0.500  1.245957  143.009  41.1387  7.018229
  7767.188  7767.190  0.500  1.246017  142.889  41.1017  7.468518
  7771.753  7771.750  0.500  1.257425  142.779  40.6042  7.700340
  7776.487  7776.480  0.500  1.268053  142.659  40.1413  7.686918
  7781.397  7781.380  0.500  1.282692  142.554  39.5287  7.644397
  7786.456  7786.450  0.500  1.279227  142.407  39.6252  7.563106
  7791.700  7791.690  0.500  1.264674  142.317  40.1804  7.514379
  7797.123  7797.110  0.500  1.256571  142.173  40.4665  7.362325
  7802.692  7802.690  0.500  1.252236  142.072  40.6135  7.087596
  7808.462  7808.450  0.500  1.239819  141.919  41.0766  6.973583
  7814.389  7814.380  0.500  1.227845  141.788  41.5329  7.258993
  7820.479  7820.480  0.500  1.232672  141.641  41.2902  7.579527
  7826.762  7826.750  0.500  1.231054  141.507  41.3179  7.911933
  7833.198  7833.190  0.500  1.218462  141.266  41.7703  8.388396
  7839.804  7839.800  0.500  1.207742  140.308  41.9341  8.407599
  7846.603  7846.590  0.500  1.204199  139.944  41.9736  8.176167
  7853.555  7853.550  0.500  1.204539  140.801  42.2163  8.177352
  7860.687  7860.670  0.500  1.207383  140.688  42.0629  8.118384
  7867.976  7867.970  0.500  1.207645  140.519  42.0011  7.642267
  7875.462  7875.450  0.500  1.204070  140.751  42.2212  7.480720
  7883.101  7883.090  0.500  1.194748  140.602  42.5714  7.691258
  7890.909  7890.900  0.500  1.183622  140.411  42.9894  8.402058
  7898.907  7898.890  0.500  1.175941  139.844  43.1459  9.062224
  7907.060  7907.050  0.500  1.169485  139.987  43.4696  8.980544
  7915.389  7915.370  0.500  1.166818  139.791  43.5248  8.705989
  7923.894  7923.870  0.500  1.159275  139.569  43.7846  8.723648
  7932.571  7932.550  0.500  1.151967  139.299  44.0204  8.893679
  7941.400  7941.390  0.500  1.144243  139.284  44.357  9.017328
  7950.420  7950.400  0.500  1.140095  138.383  44.2532  8.712711
  7959.601  7959.590  0.500  1.132399  138.604  44.6665  8.686841
  7968.965  7968.950  0.500  1.127719  138.287  44.7732  8.980949
  7978.482  7978.470  0.500  1.124943  137.756  44.7253  9.375983
  7988.186  7988.170  0.500  1.117696  137.417  44.9397  9.555646
  7998.068  7998.050  0.500  1.109489  137.142  45.2194  9.686951
  8008.115  8008.090  0.500  1.101372  136.978  45.5335  9.776203
  8018.315  8018.300  0.500  1.095787  136.924  45.7706  9.765983
  8028.707  8028.690  0.500  1.087537  136.636  46.0526  9.805096
  8039.274  8039.250  0.500  1.079451  136.303  46.3132  9.802368
  8049.996  8049.980  0.500  1.073599  135.961  46.4684  9.857093
  8060.896  8060.880  0.500  1.066422  135.833  46.7587  10.1265
  8071.974  8071.950  0.500  1.058352  135.307  46.9551  10.3004
  8083.209  8083.190  0.500  1.051366  135.051  47.1948  10.4528
  8094.644  8094.610  0.500  1.043938  134.859  47.4791  10.6887
  8106.204  8106.190  0.500  1.037779  134.392  47.6072  10.7857
  8117.972  8117.950  0.500  1.030443  134.022  47.8257  10.8606
  8129.891  8129.880  0.500  1.024047  133.604  47.9825  10.8938
  8142.000  8141.980  0.500  1.015704  133.134  48.2143  10.9538
  8154.274  8154.250  0.500  1.008184  132.727  48.4295  11.046
  8166.701  8166.690  0.500  1.000195  132.344  48.6773  11.2501
  8179.324  8179.310  0.500  0.991735  131.858  48.9102  11.4204
  8192.100  8192.090  0.500  0.983910  131.415  49.1291  11.5391
  8205.058  8205.050  0.500  0.976859  130.943  49.2989  11.7004
  8218.192  8218.180  0.500  0.968811  130.437  49.5054  11.8623
  8231.506  8231.480  0.500  0.961082  129.885  49.6783  12.0054
  8244.960  8244.950  0.500  0.953361  129.456  49.898  12.1059
  8258.614  8258.600  0.500  0.945462  128.927  50.0881  12.1644
  8272.436  8272.410  0.500  0.937349  128.365  50.2762  12.2536
  8286.422  8286.400  0.500  0.929777  127.779  50.427  12.4288
  8300.576  8300.560  0.500  0.921632  127.213  50.6142  12.5911
  8314.901  8314.890  0.500  0.913455  125.157  50.2049  12.5828
  8329.418  8329.390  0.500  0.905448  125.974  50.9388  12.8642
  8344.072  8344.060  0.500  0.897606  125.109  50.9873  12.9558
  8358.882  8358.900  0.500  0.889173  124.131  51.0174  13.0467
  8373.894  8373.920  0.500  0.880822  123.605  51.2272  13.1835
  8389.088  8389.100  0.500  0.872653  122.865  51.3383  13.2812
  8404.445  8404.460  0.500  0.864389  122.103  51.4429  13.396
  8419.963  8419.990  0.500  0.856269  121.438  51.5801  13.5248
  8435.675  8435.690  0.500  0.848140  120.641  51.6596  13.6529
  8451.545  8451.560  0.500  0.839945  119.819  51.7302  13.7818
  8467.627  8467.610  0.500  0.831575  119.029  51.8211  13.914
  8483.798  8483.820  0.500  0.823122  118.133  51.8675  14.0322
  8500.268  8500.210  0.500  0.814705  117.275  51.926  14.1503
  8516.825  8516.770  0.500  0.806124  116.219  51.9017  14.2444
  8533.521  8533.500  0.500  0.797927  114.809  51.694  14.2792
  8550.422  8550.400  0.500  0.789429  114.45  51.972  14.4586
  8561.742  8561.760  0.500  0.783726  113.712  51.9323  14.5162