File: xdidata/Data/Gd/Gd-L3-GadoliniumOxide.xdi
# XDI/1.0 BlueSky/1.10.0 BMM/2023-1.0-py310-tiled
# Beamline.name: BMM (06BM) -- Beamline for Materials Measurement (NIST)
# Beamline.xray_source: NSLS-II three-pole wiggler
# Beamline.collimation: paraboloid mirror, 5 nm Rh on 30 nm Pt
# Beamline.focusing: not in use
# Beamline.harmonic_rejection: flat mirror, Si stripe, pitch = 7.0 mrad relative to beam
# Beamline.software: Bluesky 1.10.0, Ophyd 1.7.0, DataBroker 2.0.0b13, Python 3.10.8, 2023-1.0-py310-tiled
# Detector.I0: 10 cm N2
# Detector.I1: 25 cm N2
# Detector.I2: 25 cm N2
# Element.symbol: Gd
# Element.edge: L3
# Element.reference: Gd
# Element.reference_material: Gd2O3
# Facility.name: NSLS-II
# Facility.energy: 3.0
# Facility.current: 399.5
# Facility.mode: top-off
# Facility.GUP: 301027
# Facility.SAF: 310583
# Facility.cycle: 2023-2
# Mono.name: Si(111)
# Mono.d_spacing: 3.13519
# Mono.encoder_resolution: 0.0000050 deg/ct
# Mono.angle_offset: 16.0754 deg
# Mono.scan_mode: pseudo channel cut
# Mono.scan_type: step
# Mono.direction: forward in energy
# Sample.name: Gd2O3
# Sample.prep: PEG pellet
# Sample.x: 109.138 mm
# Sample.y: 153.150 mm
# Sample.SDD_position: 205.000 mm
# Scan.experimenters: Bruce Ravel
# Scan.edge_energy: 7242.8
# Scan.start_time: 2023-05-28T13:39:14
# Scan.end_time: 2023-05-28T13:46:36
# Scan.transient_id: 78728
# Scan.uid: 14216575-1ced-4e4f-b610-4821de4d762e
# Scan.plot_hint: ln(It/Ir)  --  ln($6/$7)
# Column.1: energy eV
# Column.2: requested_energy eV
# Column.3: measurement_time seconds
# Column.4: xmu
# Column.5: I0 nA
# Column.6: It nA
# Column.7: Ir nA
# ///////////
# sample courtesy Martin Stennett, University of Sheffield
# -----------
# energy  requested_energy  measurement_time  xmu  I0  It  Ir
  7042.819  7042.800  0.500  1.945082  154.661  149.401  21.3607
  7072.816  7072.800  0.500  1.920842  154.44  150.554  22.0537
  7102.797  7102.800  0.500  1.897017  154.215  151.704  22.758
  7132.827  7132.800  0.500  1.873868  153.45  152.245  23.3739
  7162.808  7162.800  0.500  1.850794  153.346  153.435  24.1065
  7192.809  7192.800  0.500  1.828753  150.585  151.959  24.4067
  7214.806  7214.800  0.500  1.814676  152.328  154.675  25.1951
  7220.799  7220.800  0.500  1.812137  152.114  154.731  25.2683
  7226.799  7226.800  0.500  1.811228  151.866  154.68  25.2829
  7232.810  7232.800  0.500  1.815385  151.994  155.095  25.2457
  7233.683  7233.700  0.500  1.816888  151.954  155.056  25.2013
  7234.585  7234.600  0.500  1.818942  151.922  155.044  25.1477
  7235.487  7235.500  0.500  1.821659  151.864  155.07  25.0837
  7236.390  7236.400  0.500  1.825202  151.856  155.058  24.9931
  7237.284  7237.300  0.500  1.829933  151.825  155.09  24.8802
  7238.189  7238.200  0.500  1.836147  151.813  155.072  24.7232
  7239.090  7239.100  0.500  1.845330  151.808  155.122  24.5052
  7239.993  7240.000  0.500  1.858158  151.752  155.137  24.1951
  7240.906  7240.900  0.500  1.875810  151.742  155.153  23.7743
  7241.796  7241.800  0.500  1.896255  151.769  155.245  23.307
  7242.694  7242.700  0.500  1.922797  151.71  155.176  22.6864
  7243.605  7243.600  0.500  1.967928  151.639  155.183  21.6862
  7244.579  7244.500  0.500  2.044304  150.513  154.049  19.9448
  7245.421  7245.400  0.500  2.143985  148.889  152.505  17.8716
  7246.308  7246.300  0.500  2.243477  151.128  154.781  16.4206
  7247.200  7247.200  0.500  2.308360  151.408  155.054  15.4161
  7248.099  7248.100  0.500  2.351613  151.482  155.172  14.7748
  7249.007  7249.000  0.500  2.375979  151.45  155.215  14.4231
  7249.906  7249.900  0.500  2.365645  151.401  155.193  14.5709
  7250.799  7250.800  0.500  2.316685  151.373  155.213  15.304
  7251.699  7251.700  0.500  2.247666  151.33  155.193  16.3955
  7252.601  7252.600  0.500  2.178034  151.253  155.151  17.573
  7253.499  7253.500  0.500  2.123332  151.036  154.996  18.5425
  7254.404  7254.400  0.500  2.082363  149.382  153.288  19.1051
  7255.305  7255.300  0.500  2.053485  150.063  154.042  19.7616
  7256.199  7256.200  0.500  2.033559  151.427  155.531  20.3542
  7257.096  7257.100  0.500  2.018913  151.352  155.447  20.6433
  7258.004  7258.000  0.500  2.008676  151.279  155.378  20.8465
  7258.903  7258.900  0.500  2.000860  151.192  155.357  21.0073
  7259.796  7259.800  0.500  1.994988  151.108  155.329  21.1271
  7260.698  7260.700  0.500  1.990928  151  155.255  21.203
  7261.605  7261.600  0.500  1.989011  150.749  155.028  21.2126
  7262.503  7262.500  0.500  1.988965  150.228  154.536  21.1463
  7263.403  7263.400  0.500  1.990078  148.483  152.768  20.881
  7264.298  7264.300  0.500  1.990435  134.14  138.028  18.8596
  7265.196  7265.200  0.500  1.992576  128.18  131.954  17.9911
  7266.100  7266.100  0.500  1.992195  149.499  153.938  20.9964
  7267.001  7267.000  0.500  1.990967  151.155  155.643  21.2552
  7267.802  7267.800  0.500  1.988891  151.359  155.872  21.3306
  7270.820  7270.810  0.500  1.980192  151.512  156.19  21.5609
  7274.003  7274.000  0.500  1.984065  150.417  155.23  21.3455
  7277.371  7277.360  0.500  1.999583  151.907  156.858  21.2373
  7280.893  7280.880  0.500  2.020831  151.829  156.897  20.7959
  7284.597  7284.580  0.500  2.032125  149.318  154.494  20.2474
  7288.458  7288.450  0.500  2.020819  151.591  157.006  20.8107
  7292.513  7292.500  0.500  2.002698  151.585  157.125  21.2073
  7296.716  7296.710  0.500  1.990032  151.485  157.174  21.4843
  7301.093  7301.090  0.500  1.980142  150.688  156.559  21.6129
  7305.655  7305.650  0.500  1.972832  151.415  157.511  21.9039
  7310.395  7310.380  0.500  1.967071  151.31  157.572  22.0389
  7315.294  7315.280  0.500  1.965210  151.213  157.712  22.0996
  7320.352  7320.350  0.500  1.967902  151.123  157.848  22.0592
  7325.601  7325.590  0.500  1.971434  151.025  157.958  21.9968
  7331.026  7331.010  0.500  1.971250  150.94  158.092  22.0195
  7336.601  7336.590  0.500  1.967113  150.846  158.248  22.1326
  7342.368  7342.350  0.500  1.962159  150.533  158.077  22.2184
  7348.292  7348.280  0.500  1.957115  150.541  158.366  22.3716
  7354.393  7354.380  0.500  1.953243  150.44  158.514  22.4794
  7360.671  7360.650  0.500  1.948483  150.335  158.655  22.6068
  7367.100  7367.090  0.500  1.939051  150.193  158.762  22.8364
  7373.720  7373.700  0.500  1.928315  150.081  158.886  23.1009
  7380.507  7380.490  0.500  1.923618  149.916  158.978  23.2232
  7387.464  7387.450  0.500  1.922341  149.811  159.174  23.2814
  7394.582  7394.570  0.500  1.921729  149.679  159.281  23.3113
  7401.887  7401.870  0.500  1.921239  149.579  159.481  23.3521
  7409.358  7409.350  0.500  1.916765  149.367  159.569  23.4697
  7416.997  7416.990  0.500  1.906627  149.235  159.725  23.7321
  7424.812  7424.800  0.500  1.898852  149.044  159.818  23.9312
  7432.806  7432.790  0.500  1.894617  148.891  159.93  24.0497
  7440.964  7440.950  0.500  1.890735  148.643  159.966  24.1486
  7449.285  7449.270  0.500  1.885656  148.533  160.212  24.3089
  7457.779  7457.770  0.500  1.877130  148.28  160.267  24.5254
  7466.459  7466.450  0.500  1.869340  148.033  160.321  24.7255
  7475.300  7475.290  0.500  1.864023  148.022  160.637  24.9065
  7484.311  7484.300  0.500  1.859769  147.804  160.775  25.034
  7493.500  7493.490  0.500  1.855303  147.602  160.898  25.1653
  7502.857  7502.850  0.500  1.849342  147.408  161.05  25.3398
  7512.384  7512.370  0.500  1.842227  147.144  161.104  25.5293
  7522.083  7522.070  0.500  1.834174  146.882  161.222  25.7545
  7531.963  7531.950  0.500  1.826691  146.661  161.354  25.9691
  7542.007  7541.990  0.500  1.820837  146.392  161.405  26.1299
  7552.204  7552.200  0.500  1.814871  146.142  161.504  26.3024
  7562.602  7562.590  0.500  1.807109  145.841  161.544  26.5139
  7573.167  7573.150  0.500  1.799474  145.565  161.612  26.7282
  7583.897  7583.880  0.500  1.792793  145.209  161.574  26.9012
  7594.804  7594.780  0.500  1.785647  144.818  161.537  27.0879
  7605.871  7605.850  0.500  1.778853  143.985  161.041  27.1888
  7617.110  7617.090  0.500  1.772311  143.647  161.078  27.3736
  7628.526  7628.510  0.500  1.764936  143.769  161.675  27.6783
  7640.113  7640.090  0.500  1.756896  143.433  161.612  27.891
  7651.865  7651.850  0.500  1.748828  143.051  161.603  28.1154
  7663.802  7663.780  0.500  1.740696  142.697  161.617  28.3473
  7675.898  7675.880  0.500  1.732685  142.3  161.567  28.5665
  7688.177  7688.150  0.500  1.725662  138.597  157.81  28.0989
  7700.598  7700.590  0.500  1.718585  141.986  162.072  29.0627
  7713.221  7713.210  0.500  1.710268  141.601  162.135  29.3167
  7726.006  7725.990  0.500  1.702028  141.182  162.043  29.5426
  7738.963  7738.950  0.500  1.693543  140.533  161.705  29.7322
  7752.096  7752.080  0.500  1.684944  140.273  161.909  30.0269
  7765.388  7765.380  0.500  1.677186  139.806  161.74  30.229
  7778.862  7778.850  0.500  1.670099  139.311  161.617  30.421
  7792.511  7792.500  0.500  1.661584  138.825  161.51  30.6607
  7806.317  7806.310  0.500  1.652041  138.361  161.429  30.9392
  7820.309  7820.300  0.500  1.643001  137.871  161.337  31.2023
  7834.469  7834.460  0.500  1.634470  137.364  161.128  31.429
  7848.802  7848.790  0.500  1.626700  136.767  160.957  31.6405
  7863.299  7863.290  0.500  1.618561  136.289  160.803  31.8685
  7877.972  7877.960  0.500  1.609882  135.752  160.66  32.1178
  7892.817  7892.800  0.500  1.600268  135.212  160.488  32.3933
  7907.832  7907.820  0.500  1.591663  134.629  160.27  32.6288