File: xdidata/Data/Gd/Gd-L1-Gd2TiO5.xdi
# XDI/1.0 BlueSky/1.10.0 BMM/2023-1.0-py310-tiled
# Beamline.name: BMM (06BM) -- Beamline for Materials Measurement (NIST)
# Beamline.xray_source: NSLS-II three-pole wiggler
# Beamline.collimation: paraboloid mirror, 5 nm Rh on 30 nm Pt
# Beamline.focusing: not in use
# Beamline.harmonic_rejection: flat mirror, Pt stripe, pitch = 7.0 mrad relative to beam
# Beamline.software: Bluesky 1.10.0, Ophyd 1.7.0, DataBroker 2.0.0b13, Python 3.10.8, 2023-1.0-py310-tiled
# Detector.I0: 10 cm N2
# Detector.I1: 25 cm N2
# Detector.I2: 25 cm N2
# Element.symbol: Gd
# Element.edge: L1
# Element.reference: Gd
# Element.reference_material: Gd2O3
# Facility.name: NSLS-II
# Facility.energy: 3.0
# Facility.current: 400.7
# Facility.mode: top-off
# Facility.GUP: 123456
# Facility.SAF: 301027
# Facility.cycle: 2023-2
# Mono.name: Si(111)
# Mono.d_spacing: 3.13519
# Mono.encoder_resolution: 0.0000050 deg/ct
# Mono.angle_offset: 16.0754 deg
# Mono.scan_mode: pseudo channel cut
# Mono.scan_type: step
# Mono.direction: forward in energy
# Sample.name: Gd2TiO5
# Sample.prep: Powder in PEG pellet
# Sample.x: 149.848 mm
# Sample.y: 114.690 mm
# Sample.SDD_position: 205.000 mm
# Scan.experimenters: Bruce Ravel
# Scan.edge_energy: 8375.6
# Scan.start_time: 2023-05-08T21:44:31
# Scan.end_time: 2023-05-08T21:50:19
# Scan.transient_id: 75642
# Scan.uid: db14f2a7-34ec-48bb-8d73-ce3c7c4dc71f
# Scan.plot_hint: ln(I0/It)  --  ln($5/$6)
# Column.1: energy eV
# Column.2: requested_energy eV
# Column.3: measurement_time seconds
# Column.4: xmu
# Column.5: I0 nA
# Column.6: It nA
# Column.7: Ir nA
# ///////////
# sample courtesy Martin Stennett, University of Sheffield
# -----------
# energy  requested_energy  measurement_time  xmu  I0  It  Ir
  8175.604  8175.600  0.500  1.114759  135.877  44.5668  11.4374
  8195.631  8195.600  0.500  1.102119  135.543  45.023  11.6533
  8215.655  8215.600  0.500  1.092563  135.18  45.3332  11.8503
  8235.621  8235.600  0.500  1.081092  134.788  45.7234  12.0438
  8255.625  8255.600  0.500  1.070040  134.428  46.1082  12.2542
  8275.616  8275.600  0.500  1.061454  134.071  46.3822  12.428
  8295.618  8295.600  0.500  1.051262  133.667  46.716  12.618
  8315.616  8315.600  0.500  1.040226  133.288  47.1005  12.8227
  8335.570  8335.600  0.500  1.030899  132.693  47.3297  12.9949
  8347.582  8347.600  0.500  1.026119  132.287  47.411  13.0776
  8351.575  8351.600  0.500  1.024552  131.971  47.3718  13.0868
  8355.579  8355.600  0.500  1.022738  131.826  47.4057  13.114
  8359.578  8359.600  0.500  1.021016  131.761  47.4642  13.1416
  8363.580  8363.600  0.500  1.019534  131.712  47.5169  13.1697
  8366.077  8366.100  0.500  1.018661  131.673  47.5443  13.1868
  8367.076  8367.100  0.500  1.018378  131.646  47.548  13.1913
  8368.076  8368.100  0.500  1.018127  131.625  47.5521  13.1962
  8369.076  8369.100  0.500  1.017979  131.593  47.5477  13.1964
  8370.074  8370.100  0.500  1.018014  131.577  47.5402  13.1946
  8371.086  8371.100  0.500  1.018178  131.563  47.5275  13.191
  8372.090  8372.100  0.500  1.018140  131.533  47.5184  13.1869
  8373.091  8373.100  0.500  1.018496  131.499  47.4892  13.1752
  8374.092  8374.100  0.500  1.018672  131.481  47.4743  13.167
  8375.088  8375.100  0.500  1.019735  131.462  47.4169  13.1432
  8376.090  8376.100  0.500  1.020894  131.438  47.3534  13.1099
  8377.095  8377.100  0.500  1.023126  131.418  47.2409  13.054
  8378.097  8378.100  0.500  1.026875  131.402  47.0584  12.9718
  8379.091  8379.100  0.500  1.030521  131.387  46.8816  12.8926
  8380.088  8380.100  0.500  1.033723  131.355  46.7203  12.8217
  8381.088  8381.100  0.500  1.036760  131.331  46.5703  12.7533
  8382.094  8382.100  0.500  1.039503  131.305  46.4336  12.6863
  8383.098  8383.100  0.500  1.042630  131.266  46.2748  12.6171
  8384.098  8384.100  0.500  1.046115  131.242  46.1054  12.5408
  8385.099  8385.100  0.500  1.050231  131.21  45.9046  12.4568
  8386.092  8386.100  0.500  1.055215  131.174  45.6639  12.3542
  8387.093  8387.100  0.500  1.061579  131.135  45.3608  12.2256
  8388.098  8388.100  0.500  1.068547  131.096  45.0324  12.0861
  8389.100  8389.100  0.500  1.075725  131.058  44.6974  11.9403
  8390.105  8390.100  0.500  1.081962  131.026  44.4086  11.8145
  8391.105  8391.100  0.500  1.086420  130.996  44.201  11.7287
  8392.102  8392.100  0.500  1.088837  130.976  44.0875  11.6877
  8393.098  8393.100  0.500  1.089279  130.953  44.0604  11.6818
  8394.099  8394.100  0.500  1.088541  130.922  44.0824  11.6938
  8395.102  8395.100  0.500  1.087825  130.909  44.1096  11.7099
  8396.100  8396.100  0.500  1.087020  130.873  44.1328  11.7227
  8397.098  8397.100  0.500  1.086483  130.839  44.1451  11.7249
  8398.093  8398.100  0.500  1.086298  130.809  44.1433  11.7269
  8399.094  8399.100  0.500  1.085421  130.781  44.1724  11.7336
  8400.102  8400.100  0.500  1.084783  130.756  44.1923  11.7408
  8401.592  8401.590  0.500  1.082755  130.717  44.2689  11.7674
  8403.624  8403.610  0.500  1.079080  130.679  44.4189  11.8296
  8405.733  8405.720  0.500  1.073109  130.64  44.6714  11.938
  8407.906  8407.900  0.500  1.065962  130.586  44.9735  12.0723
  8410.175  8410.160  0.500  1.059491  130.535  45.2475  12.2001
  8412.491  8412.490  0.500  1.054995  130.49  45.4357  12.2969
  8414.914  8414.900  0.500  1.051790  130.427  45.5597  12.364
  8417.382  8417.380  0.500  1.050069  130.36  45.6147  12.4011
  8419.954  8419.940  0.500  1.050037  130.323  45.6033  12.4136
  8422.586  8422.580  0.500  1.050737  130.26  45.5494  12.4082
  8425.316  8425.300  0.500  1.051448  130.191  45.493  12.4003
  8428.095  8428.090  0.500  1.051552  130.131  45.4671  12.3955
  8430.957  8430.950  0.500  1.051494  130.056  45.4435  12.3906
  8433.895  8433.890  0.500  1.051952  129.988  45.3991  12.377
  8436.924  8436.910  0.500  1.052742  129.915  45.3378  12.3569
  8440.028  8440.010  0.500  1.053622  129.867  45.2812  12.3316
  8443.195  8443.180  0.500  1.053563  129.775  45.2517  12.3198
  8446.436  8446.430  0.500  1.051821  129.687  45.2999  12.338
  8449.762  8449.750  0.500  1.049030  129.611  45.3998  12.3835
  8453.160  8453.150  0.500  1.045533  129.531  45.5306  12.449
  8456.633  8456.630  0.500  1.042327  129.435  45.643  12.518
  8460.188  8460.180  0.500  1.039251  129.35  45.7537  12.5838
  8463.826  8463.810  0.500  1.036049  129.264  45.8698  12.641
  8467.529  8467.510  0.500  1.033364  129.66  46.1341  12.733
  8471.303  8471.290  0.500  1.030984  129.564  46.2098  12.7652
  8475.161  8475.150  0.500  1.029475  129.455  46.2407  12.7912
  8479.102  8479.080  0.500  1.027919  129.371  46.2827  12.8283
  8483.100  8483.090  0.500  1.025624  129.284  46.3578  12.8773
  8487.191  8487.180  0.500  1.023243  129.183  46.4318  12.9267
  8491.354  8491.340  0.500  1.021292  129.088  46.4883  12.973
  8495.590  8495.580  0.500  1.020105  128.981  46.5049  13.0026
  8499.895  8499.890  0.500  1.019101  128.876  46.5137  13.0244
  8504.289  8504.280  0.500  1.017746  128.76  46.5349  13.0417
  8508.762  8508.750  0.500  1.016369  128.648  46.5585  13.0572
  8513.299  8513.290  0.500  1.014798  128.526  46.5874  13.0803
  8517.927  8517.910  0.500  1.011820  128.381  46.6737  13.1281
  8522.618  8522.600  0.500  1.008718  128.195  46.7509  13.1739
  8527.382  8527.370  0.500  1.005786  127.626  46.6801  13.1773
  8532.230  8532.220  0.500  1.003078  123.714  45.3718  12.8365
  8537.152  8537.150  0.500  1.000708  127.916  47.0244  13.3399
  8542.162  8542.150  0.500  0.997783  127.846  47.1363  13.4078
  8547.228  8547.220  0.500  0.995187  127.72  47.2123  13.4552
  8552.378  8552.370  0.500  0.992699  127.589  47.2814  13.4958
  8557.611  8557.600  0.500  0.990135  127.438  47.3467  13.5345
  8562.913  8562.910  0.500  0.987900  127.308  47.4042  13.5754
  8568.291  8568.290  0.500  0.985298  127.16  47.4723  13.625
  8573.761  8573.750  0.500  0.982985  127.004  47.5238  13.6713
  8579.296  8579.280  0.500  0.980405  126.823  47.5787  13.7229
  8584.904  8584.890  0.500  0.978231  126.611  47.6025  13.7664
  8590.599  8590.570  0.500  0.975785  125.533  47.3129  13.7135
  8596.362  8596.340  0.500  0.973393  125.678  47.4812  13.7863
  8602.194  8602.170  0.500  0.970512  125.936  47.7157  13.88
  8608.109  8608.090  0.500  0.967730  125.52  47.6905  13.8992
  8614.098  8614.080  0.500  0.964463  123.769  47.1792  13.7801
  8620.164  8620.150  0.500  0.961047  126.353  48.3292  14.1488
  8626.301  8626.290  0.500  0.957788  126.516  48.5494  14.2448
  8632.526  8632.510  0.500  0.955228  126.085  48.508  14.2678
  8638.809  8638.800  0.500  0.952441  125.549  48.4365  14.2826
  8645.201  8645.170  0.500  0.949691  123.04  47.5993  14.0716
  8651.634  8651.620  0.500  0.946879  125.385  48.643  14.4203
  8658.168  8658.150  0.500  0.943798  125.218  48.7281  14.4789
  8664.767  8664.750  0.500  0.940649  125.046  48.8146  14.539
  8671.430  8671.420  0.500  0.937275  124.874  48.9124  14.6019
  8678.199  8678.170  0.500  0.933985  124.675  48.9953  14.6643
  8685.026  8685.000  0.500  0.930916  124.497  49.0758  14.7295
  8691.930  8691.910  0.500  0.928253  124.267  49.1158  14.7814
  8698.914  8698.890  0.500  0.925355  123.993  49.1497  14.8277
  8705.974  8705.950  0.500  0.922148  121.738  48.4109  14.6401
  8713.094  8713.080  0.500  0.919120  123.755  49.3621  14.9654
  8720.305  8720.290  0.500  0.915986  123.601  49.4556  15.0322
  8727.608  8727.580  0.500  0.912211  123.429  49.5733  15.1038
  8734.958  8734.940  0.500  0.908532  123.244  49.6816  15.1769
  8742.394  8742.380  0.500  0.905337  123.051  49.7623  15.2425
  8749.915  8749.890  0.500  0.901833  122.849  49.8553  15.3126
  8757.499  8757.480  0.500  0.898364  122.635  49.9413  15.3829
  8765.166  8765.150  0.500  0.895113  122.428  50.0194  15.4511
  8772.916  8772.890  0.500  0.891925  122.228  50.0973  15.5199
  8780.723  8780.710  0.500  0.888554  122.02  50.1808  15.5905
  8788.631  8788.610  0.500  0.885097  121.794  50.2612  15.6593
  8796.593  8796.580  0.500  0.881498  121.564  50.3473  15.7324
  8804.654  8804.630  0.500  0.877845  121.371  50.4511  15.8058
  8812.760  8812.750  0.500  0.874358  121.15  50.5355  15.8746
  8820.968  8820.950  0.500  0.870831  120.939  50.6256  15.9459
  8829.242  8829.230  0.500  0.867169  120.711  50.7156  16.0212
  8837.596  8837.580  0.500  0.863619  120.484  50.8  16.0972
  8846.030  8846.010  0.500  0.860015  120.25  50.8844  16.1697
  8854.528  8854.510  0.500  0.856531  120.022  50.9651  16.2453
  8863.107  8863.090  0.500  0.853095  119.785  51.0398  16.3191
  8871.774  8871.750  0.500  0.849106  119.542  51.1397  16.3996
  8880.510  8880.490  0.500  0.845238  119.303  51.2355  16.4803
  8889.317  8889.300  0.500  0.841466  119.068  51.3274  16.5571
  8898.201  8898.180  0.500  0.837832  118.805  51.4009  16.6272
  8907.153  8907.140  0.500  0.834060  118.506  51.4653  16.7001
  8916.197  8916.180  0.500  0.830244  118.224  51.5388  16.7748
  8920.749  8920.730  0.500  0.828417  118.212  51.628  16.8332