File: xdidata/Sm/Sm-L3-Sm2O3-m.xdi
# XDI/1.0 BlueSky/1.10.0 BMM/2023-1.0-py310-tiled
# Beamline.name: BMM (06BM) -- Beamline for Materials Measurement (NIST)
# Beamline.xray_source: NSLS-II three-pole wiggler
# Beamline.collimation: paraboloid mirror, 5 nm Rh on 30 nm Pt
# Beamline.focusing: not in use
# Beamline.harmonic_rejection: flat mirror, Si stripe, pitch = 7.0 mrad relative to beam
# Beamline.software: Bluesky 1.10.0, Ophyd 1.7.0, DataBroker 2.0.0b13, Python 3.10.8, 2023-1.0-py310-tiled
# Detector.I0: 10 cm N2
# Detector.I1: 25 cm N2
# Detector.I2: 25 cm N2
# Element.symbol: Sm
# Element.edge: L3
# Element.reference: Sm
# Element.reference_material: Sm2O3
# Facility.name: NSLS-II
# Facility.energy: 3.0
# Facility.current: 400.4
# Facility.mode: top-off
# Facility.GUP: 123456
# Facility.SAF: 301027
# Facility.cycle: 2023-2
# Mono.name: Si(111)
# Mono.d_spacing: 3.13519
# Mono.encoder_resolution: 0.0000050 deg/ct
# Mono.angle_offset: 16.0754 deg
# Mono.scan_mode: pseudo channel cut
# Mono.scan_type: step
# Mono.direction: forward in energy
# Sample.name: monoclinic Sm2O3
# Sample.prep: Powder in PEG pellet
# Sample.x: 123.848 mm
# Sample.y: 114.690 mm
# Sample.SDD_position: 205.000 mm
# Scan.experimenters: Bruce Ravel
# Scan.edge_energy: 6716.2
# Scan.start_time: 2023-05-08T17:04:37
# Scan.end_time: 2023-05-08T17:10:37
# Scan.transient_id: 75429
# Scan.uid: e05edf53-603b-4715-95c1-99ade5ac536b
# Scan.plot_hint: ln(I0/It)  --  ln($5/$6)
# Column.1: energy eV
# Column.2: requested_energy eV
# Column.3: measurement_time seconds
# Column.4: xmu
# Column.5: I0 nA
# Column.6: It nA
# Column.7: Ir nA
# ///////////
# sample courtesy Martin Stennett, University of Sheffield
# -----------
# energy  requested_energy  measurement_time  xmu  I0  It  Ir
  6516.201  6516.200  0.500  2.433968  151.045  13.2448  1.112405
  6536.214  6536.200  0.500  2.407377  151.423  13.6358  1.169639
  6556.216  6556.200  0.500  2.380868  151.721  14.0297  1.228071
  6576.216  6576.200  0.500  2.354843  152.06  14.4317  1.289467
  6596.215  6596.200  0.500  2.329198  152.341  14.8341  1.352836
  6616.181  6616.200  0.500  2.304082  152.671  15.2443  1.419009
  6636.183  6636.200  0.500  2.278839  152.936  15.6612  1.486467
  6656.187  6656.200  0.500  2.255740  153.161  16.0507  1.551129
  6676.187  6676.200  0.500  2.235833  153.344  16.3929  1.608594
  6688.193  6688.200  0.500  2.230838  153.449  16.4863  1.624225
  6692.184  6692.200  0.500  2.232143  153.476  16.4677  1.620465
  6696.194  6696.200  0.500  2.237079  153.488  16.3879  1.606699
  6700.191  6700.200  0.500  2.247677  153.497  16.2161  1.577220
  6704.194  6704.200  0.500  2.270354  153.517  15.8545  1.514227
  6706.685  6706.700  0.500  2.299329  153.518  15.4019  1.438657
  6707.685  6707.700  0.500  2.317385  153.515  15.126  1.392658
  6708.685  6708.700  0.500  2.342922  153.522  14.7452  1.331941
  6709.688  6709.700  0.500  2.378120  153.527  14.2358  1.251603
  6710.688  6710.700  0.500  2.419801  153.505  13.6527  1.162202
  6711.690  6711.700  0.500  2.461419  153.514  13.0969  1.080313
  6712.689  6712.700  0.500  2.523156  153.515  12.3129  0.969257
  6713.689  6713.700  0.500  2.612846  153.519  11.2568  0.828541
  6714.695  6714.700  0.500  2.735167  153.524  9.961099  0.670116
  6715.691  6715.700  0.500  2.909305  153.523  8.369093  0.496849
  6716.688  6716.700  0.500  3.188815  153.525  6.328393  0.308350
  6717.693  6717.700  0.500  3.582513  153.511  4.268486  0.157837
  6718.692  6718.700  0.500  4.070929  153.515  2.619205  0.068860
  6719.690  6719.700  0.500  4.531767  153.505  1.651971  0.031401
  6720.694  6720.700  0.500  4.885449  153.509  1.159876  0.017240
  6721.691  6721.700  0.500  5.054673  153.511  0.979318  0.012811
  6722.699  6722.700  0.500  5.019446  153.514  1.014446  0.013492
  6723.696  6723.700  0.500  4.821107  153.522  1.237059  0.018521
  6724.694  6724.700  0.500  4.532599  153.525  1.650802  0.030044
  6725.701  6725.700  0.500  4.226183  153.532  2.242806  0.050890
  6726.699  6726.700  0.500  3.955188  153.532  2.940922  0.080441
  6727.698  6727.700  0.500  3.737572  153.532  3.655873  0.116802
  6728.704  6728.700  0.500  3.582769  153.53  4.267916  0.152197
  6729.701  6729.700  0.500  3.486655  153.515  4.698014  0.179530
  6730.699  6730.700  0.500  3.433754  153.507  4.953004  0.196656
  6731.702  6731.700  0.500  3.405419  153.496  5.094964  0.206546
  6732.697  6732.700  0.500  3.388737  153.484  5.180273  0.212278
  6733.703  6733.700  0.500  3.376707  153.482  5.242895  0.216592
  6734.703  6734.700  0.500  3.368720  153.495  5.285411  0.219849
  6735.704  6735.700  0.500  3.362977  153.487  5.315570  0.222442
  6736.696  6736.700  0.500  3.359761  153.486  5.332640  0.223929
  6737.699  6737.700  0.500  3.358779  153.468  5.337277  0.225036
  6738.701  6738.700  0.500  3.357292  154.06  5.365835  0.226886
  6739.701  6739.700  0.500  3.355352  154.052  5.375965  0.227345
  6740.698  6740.700  0.500  3.352832  154.059  5.389783  0.228016
  6742.198  6742.190  0.500  3.346843  154.063  5.422298  0.229017
  6744.218  6744.210  0.500  3.343514  154.058  5.440195  0.227843
  6746.328  6746.320  0.500  3.361963  154.05  5.340489  0.218687
  6748.514  6748.500  0.500  3.405493  154.044  5.112787  0.201880
  6750.769  6750.760  0.500  3.463415  154.048  4.825175  0.182437
  6753.101  6753.090  0.500  3.522971  154.057  4.546473  0.164930
  6755.515  6755.500  0.500  3.567735  154.058  4.347474  0.153562
  6757.989  6757.980  0.500  3.578706  154.054  4.299928  0.151402
  6760.549  6760.540  0.500  3.550834  154.048  4.421269  0.159420
  6763.186  6763.180  0.500  3.499259  154.041  4.655088  0.174386
  6765.907  6765.900  0.500  3.446910  154.049  4.905509  0.191251
  6768.704  6768.690  0.500  3.409793  154.045  5.090876  0.204678
  6771.563  6771.550  0.500  3.390130  154.051  5.192191  0.212068
  6774.495  6774.490  0.500  3.382492  154.059  5.232251  0.215109
  6777.519  6777.510  0.500  3.381969  154.072  5.235451  0.215772
  6780.619  6780.610  0.500  3.381581  154.087  5.237993  0.215766
  6783.788  6783.780  0.500  3.379246  154.091  5.250375  0.216007
  6787.040  6787.030  0.500  3.377604  154.131  5.260368  0.215637
  6790.361  6790.350  0.500  3.376895  154.167  5.265317  0.215229
  6793.754  6793.750  0.500  3.379598  152.746  5.202693  0.211366
  6797.239  6797.230  0.500  3.386395  153.273  5.185297  0.208858
  6800.791  6800.780  0.500  3.389969  153.767  5.183434  0.208156
  6804.422  6804.410  0.500  3.388352  153.853  5.194734  0.209216
  6808.124  6808.110  0.500  3.390176  153.827  5.184384  0.208910
  6811.902  6811.890  0.500  3.393104  145.748  4.897736  0.197344
  6815.745  6815.750  0.500  3.392847  153.673  5.165374  0.209566
  6819.685  6819.680  0.500  3.389407  153.748  5.185716  0.211616
  6823.701  6823.690  0.500  3.381314  143.23  4.870202  0.199996
  6827.789  6827.780  0.500  3.371553  153.515  5.271135  0.217971
  6831.947  6831.940  0.500  3.358401  153.62  5.344558  0.222788
  6836.187  6836.180  0.500  3.340989  153.632  5.438877  0.229030
  6840.498  6840.490  0.500  3.323822  142.431  5.129650  0.218885
  6844.890  6844.880  0.500  3.314218  153.076  5.566205  0.238746
  6849.357  6849.350  0.500  3.314569  153.247  5.570500  0.239282
  6853.898  6853.890  0.500  3.319612  153.293  5.544130  0.237287
  6858.522  6858.510  0.500  3.322414  153.308  5.529146  0.235924
  6863.213  6863.200  0.500  3.325366  153.299  5.512513  0.234485
  6867.982  6867.970  0.500  3.324541  153.356  5.519150  0.234458
  6872.826  6872.820  0.500  3.314814  153.38  5.573954  0.238047
  6877.762  6877.750  0.500  3.300902  153.41  5.653146  0.243888
  6882.762  6882.750  0.500  3.289483  153.39  5.717328  0.249295
  6887.833  6887.820  0.500  3.283238  153.388  5.753079  0.252951
  6892.983  6892.970  0.500  3.281144  153.376  5.764680  0.254232
  6898.208  6898.200  0.500  3.280131  153.362  5.769989  0.254661
  6903.520  6903.510  0.500  3.277605  153.325  5.783185  0.255951
  6908.903  6908.890  0.500  3.272404  153.264  5.811044  0.257771
  6914.358  6914.350  0.500  3.262848  153.14  5.862070  0.261636
  6919.888  6919.880  0.500  3.249827  153.015  5.934076  0.267182
  6925.503  6925.490  0.500  3.237520  152.941  6.004631  0.272635
  6931.182  6931.170  0.500  3.226727  152.87  6.066983  0.277746
  6936.948  6936.940  0.500  3.218964  152.827  6.112540  0.281394
  6942.779  6942.770  0.500  3.214756  152.784  6.136605  0.283621
  6948.697  6948.690  0.500  3.211278  152.71  6.154992  0.285264
  6954.690  6954.680  0.500  3.207191  152.663  6.178281  0.286896
  6960.751  6960.750  0.500  3.200741  152.604  6.215862  0.290218
  6966.897  6966.890  0.500  3.192423  152.56  6.265993  0.293862
  6973.121  6973.110  0.500  3.184514  152.5  6.313249  0.298425
  6979.403  6979.400  0.500  3.174432  152.422  6.373967  0.303680
  6985.774  6985.770  0.500  3.164438  152.339  6.434484  0.308906
  6992.223  6992.220  0.500  3.158026  152.259  6.472467  0.312250
  6998.757  6998.750  0.500  3.153714  152.157  6.496075  0.314418
  7005.360  7005.350  0.500  3.147363  152.077  6.534033  0.317752
  7012.031  7012.020  0.500  3.137747  151.958  6.592010  0.322756
  7018.779  7018.770  0.500  3.127302  151.874  6.657554  0.328274
  7025.603  7025.600  0.500  3.117987  151.786  6.715955  0.333486
  7032.525  7032.510  0.500  3.108446  151.677  6.775437  0.339278
  7039.501  7039.490  0.500  3.097535  151.573  6.845108  0.345468
  7046.566  7046.550  0.500  3.086882  151.433  6.912009  0.351646
  7053.693  7053.680  0.500  3.078239  151.312  6.966450  0.356438
  7060.893  7060.890  0.500  3.070538  151.213  7.015693  0.360862
  7068.196  7068.180  0.500  3.063899  151.029  7.053861  0.365198
  7075.558  7075.540  0.500  3.056676  149.524  7.034182  0.366214
  7082.998  7082.980  0.500  3.047565  149.417  7.093464  0.371881
  7090.501  7090.490  0.500  3.038612  150.525  7.210361  0.380932
  7098.097  7098.080  0.500  3.028136  150.376  7.279062  0.387412
  7105.775  7105.750  0.500  3.016761  150.204  7.353935  0.394803
  7113.517  7113.490  0.500  3.005883  149.788  7.413743  0.401182
  7121.309  7121.310  0.500  2.996490  149.424  7.465534  0.406912
  7129.226  7129.210  0.500  2.987329  148.925  7.509100  0.412456
  7137.192  7137.180  0.500  2.977697  148.577  7.564065  0.418506
  7145.266  7145.230  0.500  2.968394  148.47  7.629233  0.425185
  7153.391  7153.350  0.500  2.957882  148.302  7.701132  0.432549
  7161.572  7161.550  0.500  2.947668  148.083  7.768701  0.440002
  7169.849  7169.830  0.500  2.936895  148.259  7.862188  0.448877
  7178.159  7178.180  0.500  2.925347  148.006  7.939948  0.457178
  7186.593  7186.610  0.500  2.913978  147.729  8.015693  0.465430
  7195.088  7195.110  0.500  2.902795  147.361  8.085638  0.473457
  7203.682  7203.690  0.500  2.891954  147.077  8.158022  0.482146
  7212.335  7212.350  0.500  2.881807  146.731  8.221817  0.489455
  7221.073  7221.090  0.500  2.871721  146.378  8.285198  0.497261
  7229.884  7229.900  0.500  2.861753  146.198  8.357934  0.505240
  7238.763  7238.780  0.500  2.851354  145.856  8.425516  0.513705
  7247.722  7247.740  0.500  2.839148  145.444  8.504916  0.523123
  7256.787  7256.780  0.500  2.826302  145.297  8.606167  0.534160
  7265.882  7265.900  0.500  2.814125  144.197  8.645616  0.541965
  7275.071  7275.090  0.500  2.802507  145.011  8.796030  0.556442
  7284.343  7284.360  0.500  2.792568  142.369  8.722060  0.556759
  7289.009  7289.020  0.500  2.787905  144.674  8.904697  0.570232