File: xdidata/Sm/Sm-L1-SamariumOxide.xdi
# XDI/1.0 BlueSky/1.10.0 BMM/2023-1.0-py310-tiled
# Beamline.name: BMM (06BM) -- Beamline for Materials Measurement (NIST)
# Beamline.xray_source: NSLS-II three-pole wiggler
# Beamline.collimation: paraboloid mirror, 5 nm Rh on 30 nm Pt
# Beamline.focusing: not in use
# Beamline.harmonic_rejection: flat mirror, Si stripe, pitch = 7.0 mrad relative to beam
# Beamline.software: Bluesky 1.10.0, Ophyd 1.7.0, DataBroker 2.0.0b13, Python 3.10.8, 2023-1.0-py310-tiled
# Detector.I0: 10 cm N2
# Detector.I1: 25 cm N2
# Detector.I2: 25 cm N2
# Element.symbol: Sm
# Element.edge: L1
# Element.reference: Sm
# Element.reference_material: Sm2O3
# Facility.name: NSLS-II
# Facility.energy: 3.0
# Facility.current: 400.6
# Facility.mode: top-off
# Facility.GUP: 301027
# Facility.SAF: 310583
# Facility.cycle: 2023-2
# Mono.name: Si(111)
# Mono.d_spacing: 3.13519
# Mono.encoder_resolution: 0.0000050 deg/ct
# Mono.angle_offset: 16.0754 deg
# Mono.scan_mode: pseudo channel cut
# Mono.scan_type: step
# Mono.direction: forward in energy
# Sample.name: Sm2O3
# Sample.prep: PEG pellet
# Sample.x: 109.138 mm
# Sample.y: 153.150 mm
# Sample.SDD_position: 205.000 mm
# Scan.experimenters: Bruce Ravel
# Scan.edge_energy: 7736.8
# Scan.start_time: 2023-05-28T14:10:33
# Scan.end_time: 2023-05-28T14:19:20
# Scan.transient_id: 78749
# Scan.uid: f40b2d96-b019-4ede-9ea4-2faa1af8b936
# Scan.plot_hint: ln(It/Ir)  --  ln($6/$7)
# Column.1: energy eV
# Column.2: requested_energy eV
# Column.3: measurement_time seconds
# Column.4: xmu
# Column.5: I0 nA
# Column.6: It nA
# Column.7: Ir nA
# ///////////
# sample courtesy Martin Stennett, University of Sheffield
# -----------
# energy  requested_energy  measurement_time  xmu  I0  It  Ir
  7536.798  7536.800  0.500  3.339194  145.446  160.208  5.681852
  7566.812  7566.800  0.500  3.313818  145.135  160.924  5.853952
  7596.815  7596.800  0.500  3.284618  144.677  161.519  6.049661
  7626.829  7626.800  0.500  3.255732  144.334  162.189  6.252821
  7656.818  7656.800  0.500  3.226860  144.061  162.989  6.467708
  7686.823  7686.800  0.500  3.201170  143.462  163.335  6.650118
  7708.805  7708.800  0.500  3.181892  143.55  164.227  6.816573
  7714.795  7714.800  0.500  3.177523  143.315  164.123  6.842087
  7720.789  7720.800  0.500  3.174246  141.443  162.223  6.785069
  7726.801  7726.800  0.500  3.171855  143.21  164.449  6.894640
  7727.680  7727.700  0.500  3.171676  143.182  164.42  6.894684
  7728.576  7728.600  0.500  3.171656  143.148  164.435  6.895434
  7729.476  7729.500  0.500  3.172000  143.14  164.446  6.893528
  7730.384  7730.400  0.500  3.172489  143.127  164.454  6.890476
  7731.284  7731.300  0.500  3.172683  143.088  164.429  6.888098
  7732.192  7732.200  0.500  3.173520  143.054  164.418  6.881881
  7733.090  7733.100  0.500  3.174428  143.036  164.461  6.877435
  7733.983  7734.000  0.500  3.175904  143.009  164.491  6.868533
  7734.894  7734.900  0.500  3.178060  142.968  164.413  6.850490
  7735.806  7735.800  0.500  3.180900  142.937  164.401  6.830557
  7736.700  7736.700  0.500  3.185426  142.901  164.431  6.800954
  7737.594  7737.600  0.500  3.191867  142.847  164.336  6.753383
  7738.490  7738.500  0.500  3.200034  142.807  164.372  6.699918
  7739.405  7739.400  0.500  3.210329  142.646  164.211  6.624829
  7740.300  7740.300  0.500  3.221699  140.194  161.397  6.437690
  7741.197  7741.200  0.500  3.231216  140.998  162.376  6.415389
  7742.095  7742.100  0.500  3.240690  142.857  164.524  6.438959
  7743.000  7743.000  0.500  3.248828  142.824  164.551  6.387813
  7743.898  7743.900  0.500  3.256776  142.791  164.549  6.337192
  7744.794  7744.800  0.500  3.265316  142.763  164.529  6.282500
  7745.698  7745.700  0.500  3.275905  142.752  164.554  6.217283
  7746.604  7746.600  0.500  3.288849  142.725  164.52  6.136046
  7747.495  7747.500  0.500  3.304824  142.685  164.548  6.039852
  7748.397  7748.400  0.500  3.323159  142.671  164.58  5.931253
  7749.304  7749.300  0.500  3.343359  142.653  164.586  5.812875
  7750.209  7750.200  0.500  3.364156  142.623  164.605  5.693870
  7751.096  7751.100  0.500  3.382911  142.605  164.581  5.587269
  7752.004  7752.000  0.500  3.398035  143.015  165.106  5.520955
  7752.901  7752.900  0.500  3.408215  143.009  165.102  5.464928
  7753.802  7753.800  0.500  3.412691  142.986  165.088  5.440041
  7754.700  7754.700  0.500  3.412616  142.975  165.132  5.441901
  7755.603  7755.600  0.500  3.409143  142.947  165.126  5.460625
  7756.497  7756.500  0.500  3.404107  142.918  165.111  5.487701
  7757.395  7757.400  0.500  3.398515  142.892  165.105  5.518271
  7758.292  7758.300  0.500  3.393222  142.87  165.119  5.548048
  7759.304  7759.200  0.500  3.389308  142.848  165.108  5.569420
  7760.075  7760.100  0.500  3.386189  142.741  165.006  5.583357
  7760.980  7761.000  0.500  3.384147  142.703  164.989  5.594212
  7761.774  7761.800  0.500  3.382389  142.629  164.919  5.601676
  7764.799  7764.810  0.500  3.374692  142.549  164.97  5.646691
  7767.988  7768.000  0.500  3.359023  142.483  164.996  5.736798
  7771.359  7771.360  0.500  3.338084  142.432  165.092  5.861563
  7774.881  7774.880  0.500  3.319977  142.371  165.075  5.968057
  7778.583  7778.580  0.500  3.307845  142.295  165.098  6.041735
  7782.439  7782.450  0.500  3.304530  142.235  165.183  6.064917
  7786.500  7786.500  0.500  3.309468  142.177  165.232  6.036844
  7790.708  7790.710  0.500  3.316453  142.103  165.307  5.997548
  7795.094  7795.090  0.500  3.322023  142.017  165.374  5.966661
  7799.655  7799.650  0.500  3.322033  141.937  165.4  5.967543
  7804.387  7804.380  0.500  3.319702  141.852  165.477  5.984249
  7809.290  7809.280  0.500  3.314841  141.756  165.519  6.014951
  7814.365  7814.350  0.500  3.305680  141.663  165.578  6.072469
  7819.599  7819.590  0.500  3.294647  141.574  165.639  6.142088
  7825.013  7825.010  0.500  3.287923  141.479  165.692  6.185508
  7830.597  7830.590  0.500  3.282764  141.389  165.797  6.221421
  7836.351  7836.350  0.500  3.275885  141.25  165.801  6.264529
  7842.280  7842.280  0.500  3.268448  141.118  165.821  6.312052
  7848.384  7848.380  0.500  3.261350  140.997  165.93  6.361186
  7854.656  7854.650  0.500  3.255034  139.987  164.922  6.362602
  7861.096  7861.090  0.500  3.250889  140.745  166.065  6.433333
  7867.712  7867.700  0.500  3.248090  140.627  166.09  6.452313
  7874.495  7874.490  0.500  3.242728  140.504  166.205  6.491493
  7881.458  7881.450  0.500  3.235065  140.39  166.3  6.545170
  7888.579  7888.570  0.500  3.225725  140.652  166.834  6.627825
  7895.885  7895.870  0.500  3.217277  140.564  166.972  6.689583
  7903.353  7903.350  0.500  3.211663  140.332  166.89  6.723916
  7911.003  7910.990  0.500  3.206613  140.209  166.999  6.762364
  7918.812  7918.800  0.500  3.199805  140.043  167.022  6.809498
  7926.798  7926.790  0.500  3.191383  139.841  167.041  6.867887
  7934.971  7934.950  0.500  3.182175  139.607  167.018  6.930473
  7943.287  7943.270  0.500  3.174565  139.612  167.272  6.994039
  7951.787  7951.770  0.500  3.167459  138.672  166.487  7.010853
  7960.468  7960.450  0.500  3.160963  139.125  167.24  7.088445
  7969.304  7969.290  0.500  3.153232  138.846  167.195  7.141528
  7978.319  7978.300  0.500  3.144438  138.366  166.899  7.191880
  7987.496  7987.490  0.500  3.135363  138.066  166.831  7.254490
  7996.868  7996.850  0.500  3.126315  137.846  166.791  7.318649
  8006.385  8006.370  0.500  3.118391  137.65  166.837  7.378930
  8016.077  8016.070  0.500  3.110582  137.693  167.235  7.454477
  8025.965  8025.950  0.500  3.101172  137.486  167.288  7.527381
  8035.993  8035.990  0.500  3.091449  137.215  167.237  7.598589
  8046.214  8046.200  0.500  3.082127  136.931  167.166  7.666485
  8056.608  8056.590  0.500  3.072511  136.374  166.809  7.724046
  8067.165  8067.150  0.500  3.063957  136.205  166.896  7.794482
  8077.894  8077.880  0.500  3.055207  135.682  166.607  7.849366
  8088.799  8088.780  0.500  3.045996  135.731  166.938  7.937704
  8099.864  8099.850  0.500  3.036018  135.574  167.109  8.025535
  8111.106  8111.090  0.500  3.025941  135.214  166.974  8.100270
  8122.524  8122.510  0.500  3.015741  134.858  166.88  8.178695
  8134.109  8134.090  0.500  3.005924  134.488  166.687  8.249848
  8145.865  8145.850  0.500  2.995996  134.132  166.571  8.326355
  8157.798  8157.780  0.500  2.986001  133.736  166.42  8.402344
  8169.895  8169.880  0.500  2.975605  133.35  166.266  8.482328
  8182.165  8182.150  0.500  2.965162  132.962  166.189  8.567421
  8194.601  8194.590  0.500  2.954569  132.55  165.977  8.647595
  8207.225  8207.210  0.500  2.943848  132.126  165.833  8.733230
  8220.004  8219.990  0.500  2.933296  131.675  165.58  8.812394
  8232.957  8232.950  0.500  2.922905  131.25  165.365  8.892873
  8246.090  8246.080  0.500  2.912144  130.803  165.179  8.978969
  8259.389  8259.380  0.500  2.901106  130.331  164.924  9.064606
  8272.858  8272.850  0.500  2.889784  129.841  164.676  9.154062
  8286.523  8286.500  0.500  2.878529  129.304  164.381  9.241050
  8300.325  8300.310  0.500  2.867374  128.769  164.031  9.324861
  8314.306  8314.300  0.500  2.856367  126.565  161.559  9.285984
  8328.481  8328.460  0.500  2.845117  127.663  163.341  9.494601
  8342.810  8342.790  0.500  2.833724  126.847  162.609  9.560338
  8357.307  8357.290  0.500  2.821879  125.895  161.741  9.622626
  8371.982  8371.960  0.500  2.810243  125.407  161.487  9.719934
  8386.813  8386.800  0.500  2.798775  124.771  161.029  9.804168
  8401.843  8401.820  0.500  2.786988  124.078  160.523  9.889235
  8417.047  8417.000  0.500  2.775363  123.384  159.954  9.969421
  8432.379  8432.360  0.500  2.763652  122.658  159.397  10.0517
  8447.945  8447.890  0.500  2.751439  121.904  158.771  10.1353
  8463.642  8463.590  0.500  2.739439  121.085  158.078  10.2129
  8479.512  8479.460  0.500  2.727520  120.45  157.627  10.3058
  8495.538  8495.510  0.500  2.715625  119.744  157.047  10.3908
  8511.756  8511.720  0.500  2.703657  118.773  156.114  10.4534
  8528.122  8528.110  0.500  2.691481  117.198  154.42  10.4667
  8544.697  8544.670  0.500  2.679292  116.729  154.131  10.5752
  8561.421  8561.400  0.500  2.667052  115.552  152.953  10.6236
  8578.306  8578.300  0.500  2.654712  114.216  151.492  10.6527
  8589.715  8589.660  0.500  2.646583  112.964  150.106  10.6415