File: xdidata/Sm/Sm-L3-Sm2TiO5.xdi
# XDI/1.0 BlueSky/1.10.0 BMM/2023-1.0-py310-tiled
# Beamline.name: BMM (06BM) -- Beamline for Materials Measurement (NIST)
# Beamline.xray_source: NSLS-II three-pole wiggler
# Beamline.collimation: paraboloid mirror, 5 nm Rh on 30 nm Pt
# Beamline.focusing: not in use
# Beamline.harmonic_rejection: flat mirror, Si stripe, pitch = 7.0 mrad relative to beam
# Beamline.software: Bluesky 1.10.0, Ophyd 1.7.0, DataBroker 2.0.0b13, Python 3.10.8, 2023-1.0-py310-tiled
# Detector.I0: 10 cm N2
# Detector.I1: 25 cm N2
# Detector.I2: 25 cm N2
# Element.symbol: Sm
# Element.edge: L3
# Element.reference: Sm
# Element.reference_material: Sm2O3
# Facility.name: NSLS-II
# Facility.energy: 3.0
# Facility.current: 400.2
# Facility.mode: top-off
# Facility.GUP: 123456
# Facility.SAF: 301027
# Facility.cycle: 2023-2
# Mono.name: Si(111)
# Mono.d_spacing: 3.13519
# Mono.encoder_resolution: 0.0000050 deg/ct
# Mono.angle_offset: 16.0754 deg
# Mono.scan_mode: pseudo channel cut
# Mono.scan_type: step
# Mono.direction: forward in energy
# Sample.name: Sm2TiO5
# Sample.prep: Powder in PEG pellet
# Sample.x: 149.848 mm
# Sample.y: 114.690 mm
# Sample.SDD_position: 205.000 mm
# Scan.experimenters: Bruce Ravel
# Scan.edge_energy: 6716.2
# Scan.start_time: 2023-05-08T17:11:21
# Scan.end_time: 2023-05-08T17:17:26
# Scan.transient_id: 75434
# Scan.uid: bf9bc973-270c-40ed-9c1e-74203cf8906c
# Scan.plot_hint: ln(I0/It)  --  ln($5/$6)
# Column.1: energy eV
# Column.2: requested_energy eV
# Column.3: measurement_time seconds
# Column.4: xmu
# Column.5: I0 nA
# Column.6: It nA
# Column.7: Ir nA
# ///////////
# sample courtesy Martin Stennett, University of Sheffield
# -----------
# energy  requested_energy  measurement_time  xmu  I0  It  Ir
  6516.205  6516.200  0.500  2.148504  150.957  17.6104  1.500187
  6536.230  6536.200  0.500  2.125246  151.355  18.0724  1.571740
  6556.209  6556.200  0.500  2.103080  151.626  18.5105  1.643288
  6576.214  6576.200  0.500  2.080404  151.988  18.9802  1.718915
  6596.217  6596.200  0.500  2.058143  152.288  19.4458  1.797126
  6616.216  6616.200  0.500  2.036285  152.56  19.911  1.877485
  6636.215  6636.200  0.500  2.015340  152.826  20.368  1.958196
  6657.153  6656.200  0.500  1.993840  152.831  20.8113  2.038046
  6676.178  6676.200  0.500  1.973688  153.234  21.2908  2.116259
  6688.185  6688.200  0.500  1.962843  153.352  21.5397  2.150796
  6692.188  6692.200  0.500  1.959887  153.385  21.6079  2.155963
  6696.190  6696.200  0.500  1.958071  153.398  21.6492  2.152816
  6700.189  6700.200  0.500  1.956824  153.406  21.6772  2.138666
  6704.196  6704.200  0.500  1.957621  153.428  21.6631  2.101978
  6706.685  6706.700  0.500  1.961054  153.444  21.5912  2.050275
  6707.681  6707.700  0.500  1.963335  153.445  21.542  2.018605
  6708.682  6708.700  0.500  1.967026  153.424  21.4597  1.973339
  6709.684  6709.700  0.500  1.972045  153.428  21.3529  1.913458
  6710.687  6710.700  0.500  1.978225  153.418  21.2199  1.844600
  6711.688  6711.700  0.500  1.984097  153.411  21.0948  1.779495
  6712.689  6712.700  0.500  1.992736  153.412  20.9135  1.687026
  6713.687  6713.700  0.500  2.005347  153.423  20.6528  1.562943
  6714.691  6714.700  0.500  2.021201  153.417  20.3272  1.413044
  6715.693  6715.700  0.500  2.042699  153.433  19.8969  1.226941
  6716.688  6716.700  0.500  2.074460  153.425  19.2738  0.985114
  6717.691  6717.700  0.500  2.114268  153.422  18.5213  0.731671
  6718.698  6718.700  0.500  2.154950  153.402  17.7807  0.517541
  6719.696  6719.700  0.500  2.187544  153.38  17.208  0.383445
  6720.694  6720.700  0.500  2.209076  153.388  16.8423  0.312632
  6721.700  6721.700  0.500  2.218928  153.399  16.6784  0.285824
  6722.697  6722.700  0.500  2.218875  153.416  16.6811  0.290785
  6723.696  6723.700  0.500  2.208720  153.401  16.8497  0.322765
  6724.696  6724.700  0.500  2.189574  153.412  17.1767  0.381356
  6725.699  6725.700  0.500  2.166066  153.41  17.585  0.461780
  6726.696  6726.700  0.500  2.142611  153.417  18.0032  0.553522
  6727.702  6727.700  0.500  2.121899  153.425  18.3809  0.646294
  6728.700  6728.700  0.500  2.106531  153.414  18.6642  0.722738
  6729.698  6729.700  0.500  2.094870  153.395  18.8808  0.777825
  6730.706  6730.700  0.500  2.087604  153.399  19.019  0.810914
  6731.704  6731.700  0.500  2.081259  153.386  19.1384  0.831104
  6732.702  6732.700  0.500  2.077428  153.371  19.2101  0.842526
  6733.701  6733.700  0.500  2.074986  153.368  19.2567  0.851114
  6734.705  6734.700  0.500  2.074016  153.912  19.3436  0.860569
  6735.706  6735.700  0.500  2.073983  153.898  19.3426  0.865183
  6736.702  6736.700  0.500  2.074668  153.901  19.3297  0.867902
  6737.697  6737.700  0.500  2.075090  153.893  19.3206  0.870034
  6738.703  6738.700  0.500  2.075828  153.885  19.3053  0.871300
  6739.696  6739.700  0.500  2.075344  153.895  19.3158  0.872736
  6740.692  6740.700  0.500  2.074256  153.906  19.3382  0.873943
  6742.194  6742.190  0.500  2.072054  153.899  19.3801  0.874906
  6744.218  6744.210  0.500  2.067756  153.892  19.4626  0.871919
  6746.328  6746.320  0.500  2.067178  153.875  19.4717  0.855405
  6748.516  6748.500  0.500  2.071195  153.879  19.3942  0.823397
  6750.781  6750.760  0.500  2.077725  153.875  19.2675  0.786289
  6753.080  6753.090  0.500  2.084487  153.86  19.1357  0.754161
  6755.498  6755.500  0.500  2.088225  153.868  19.0654  0.733997
  6757.979  6757.980  0.500  2.086799  153.875  19.0933  0.733196
  6760.544  6760.540  0.500  2.079345  153.858  19.2342  0.753590
  6763.187  6763.180  0.500  2.069455  153.864  19.4261  0.787684
  6765.905  6765.900  0.500  2.060807  153.871  19.5957  0.823965
  6768.704  6768.690  0.500  2.054667  153.876  19.717  0.851060
  6771.555  6771.550  0.500  2.050513  153.883  19.7999  0.867364
  6774.495  6774.490  0.500  2.047328  153.895  19.8647  0.876194
  6777.517  6777.510  0.500  2.044187  153.902  19.928  0.880320
  6780.613  6780.610  0.500  2.040855  153.921  19.9971  0.883694
  6783.780  6783.780  0.500  2.038441  153.929  20.0465  0.885140
  6787.036  6787.030  0.500  2.036557  153.956  20.0877  0.884794
  6790.350  6790.350  0.500  2.034526  153.996  20.1338  0.883707
  6793.754  6793.750  0.500  2.032691  152.692  20  0.873384
  6797.231  6797.230  0.500  2.031248  153.107  20.0833  0.870301
  6800.780  6800.780  0.500  2.030147  153.61  20.1715  0.872591
  6804.418  6804.410  0.500  2.028307  153.698  20.2202  0.876445
  6808.114  6808.110  0.500  2.025227  153.676  20.2797  0.880724
  6811.900  6811.890  0.500  2.021101  145.209  19.2416  0.833219
  6815.759  6815.750  0.500  2.016651  153.539  20.4361  0.892602
  6819.685  6819.680  0.500  2.012172  153.619  20.5386  0.901425
  6823.695  6823.690  0.500  2.007853  142.896  19.1876  0.846265
  6827.785  6827.780  0.500  2.003335  153.4  20.6913  0.919202
  6831.949  6831.940  0.500  1.998367  153.508  20.809  0.931362
  6836.191  6836.180  0.500  1.993144  153.518  20.9193  0.945228
  6840.500  6840.490  0.500  1.988378  142.447  19.5035  0.891891
  6844.886  6844.880  0.500  1.984248  152.971  21.0311  0.966597
  6849.359  6849.350  0.500  1.980507  153.148  21.1342  0.971818
  6853.904  6853.890  0.500  1.977725  153.2  21.2004  0.972148
  6858.514  6858.510  0.500  1.974695  153.216  21.267  0.973048
  6863.207  6863.200  0.500  1.971774  153.212  21.3286  0.973016
  6867.978  6867.970  0.500  1.967828  153.278  21.4221  0.976524
  6872.830  6872.820  0.500  1.963530  153.314  21.5195  0.986022
  6877.762  6877.750  0.500  1.959061  153.346  21.6203  0.999845
  6882.762  6882.750  0.500  1.954064  153.336  21.7273  1.014945
  6887.833  6887.820  0.500  1.949152  153.354  21.8368  1.027318
  6892.977  6892.970  0.500  1.944664  153.336  21.9324  1.035326
  6898.212  6898.200  0.500  1.939673  153.323  22.0403  1.042018
  6903.522  6903.510  0.500  1.934735  153.282  22.1436  1.048720
  6908.907  6908.890  0.500  1.929700  153.226  22.2472  1.056729
  6914.354  6914.350  0.500  1.924179  153.091  22.3506  1.067751
  6919.892  6919.880  0.500  1.919133  152.972  22.4462  1.080623
  6925.503  6925.490  0.500  1.914263  152.899  22.545  1.094079
  6931.184  6931.170  0.500  1.909376  152.826  22.6446  1.106797
  6936.950  6936.940  0.500  1.904579  152.788  22.7478  1.118824
  6942.779  6942.770  0.500  1.900470  152.744  22.835  1.127007
  6948.701  6948.690  0.500  1.895562  152.663  22.9351  1.134783
  6954.692  6954.680  0.500  1.890499  152.615  23.0443  1.143068
  6960.765  6960.750  0.500  1.884964  152.559  23.1637  1.153510
  6966.899  6966.890  0.500  1.879252  152.52  23.2905  1.167157
  6973.117  6973.110  0.500  1.873911  152.456  23.4054  1.180115
  6979.409  6979.400  0.500  1.868524  152.372  23.5188  1.194850
  6985.782  6985.770  0.500  1.863066  152.295  23.6355  1.209349
  6992.232  6992.220  0.500  1.857958  152.226  23.7458  1.220642
  6998.762  6998.750  0.500  1.852505  152.116  23.8584  1.230793
  7005.363  7005.350  0.500  1.847168  152.026  23.972  1.241504
  7012.031  7012.020  0.500  1.841206  151.913  24.0974  1.255914
  7018.779  7018.770  0.500  1.835084  151.833  24.2325  1.271461
  7025.607  7025.600  0.500  1.828771  151.742  24.3714  1.287398
  7032.521  7032.510  0.500  1.823336  151.628  24.4857  1.303052
  7039.497  7039.490  0.500  1.817428  151.51  24.6117  1.320653
  7046.555  7046.550  0.500  1.811609  151.384  24.7347  1.336873
  7053.687  7053.680  0.500  1.806129  151.271  24.8522  1.350929
  7060.897  7060.890  0.500  1.800817  151.17  24.9678  1.364823
  7068.182  7068.180  0.500  1.794865  150.984  25.086  1.378463
  7075.544  7075.540  0.500  1.788547  149.424  24.9841  1.380799
  7082.983  7082.980  0.500  1.782185  149.391  25.1381  1.398600
  7090.497  7090.490  0.500  1.776210  150.458  25.4693  1.426520
  7098.089  7098.080  0.500  1.769527  150.299  25.613  1.445856
  7105.753  7105.750  0.500  1.763465  150.146  25.7424  1.464841
  7113.498  7113.490  0.500  1.757056  149.728  25.8358  1.481266
  7121.317  7121.310  0.500  1.751448  149.37  25.919  1.496930
  7129.220  7129.210  0.500  1.745284  149.429  26.0896  1.516792
  7137.188  7137.180  0.500  1.739108  149.082  26.1903  1.534013
  7145.238  7145.230  0.500  1.732618  148.966  26.3403  1.553986
  7153.354  7153.350  0.500  1.725996  148.826  26.4903  1.574142
  7161.559  7161.550  0.500  1.719347  148.606  26.6277  1.594011
  7169.843  7169.830  0.500  1.712910  148.289  26.7425  1.613451
  7178.199  7178.180  0.500  1.706513  148.031  26.8674  1.634354
  7186.641  7186.610  0.500  1.700177  147.766  26.9897  1.655384
  7195.123  7195.110  0.500  1.693918  147.4  27.0919  1.675909
  7203.706  7203.690  0.500  1.687409  147.134  27.2196  1.697214
  7212.370  7212.350  0.500  1.680906  146.771  27.3296  1.717312
  7221.111  7221.090  0.500  1.674191  146.409  27.4458  1.737262
  7229.900  7229.900  0.500  1.667174  146.223  27.6039  1.759791
  7238.770  7238.780  0.500  1.659782  145.874  27.7423  1.782724
  7247.751  7247.740  0.500  1.653170  145.469  27.8488  1.805147
  7256.767  7256.780  0.500  1.646497  145.304  28.0036  1.832072
  7265.882  7265.900  0.500  1.641349  138.988  26.9246  1.773330
  7275.071  7275.090  0.500  1.633259  145.014  28.3202  1.886154
  7284.340  7284.360  0.500  1.626182  142.412  28.0094  1.881580
  7289.004  7289.020  0.500  1.622933  144.698  28.5518  1.923608