File: xdidata/Sm/Sm-L1-Sm2Ti2O7.xdi
# XDI/1.0 BlueSky/1.10.0 BMM/2023-1.0-py310-tiled
# Beamline.name: BMM (06BM) -- Beamline for Materials Measurement (NIST)
# Beamline.xray_source: NSLS-II three-pole wiggler
# Beamline.collimation: paraboloid mirror, 5 nm Rh on 30 nm Pt
# Beamline.focusing: not in use
# Beamline.harmonic_rejection: flat mirror, Si stripe, pitch = 7.0 mrad relative to beam
# Beamline.software: Bluesky 1.10.0, Ophyd 1.7.0, DataBroker 2.0.0b13, Python 3.10.8, 2023-1.0-py310-tiled
# Detector.I0: 10 cm N2
# Detector.I1: 25 cm N2
# Detector.I2: 25 cm N2
# Element.symbol: Sm
# Element.edge: L1
# Element.reference: Sm
# Element.reference_material: Sm2O3
# Facility.name: NSLS-II
# Facility.energy: 3.0
# Facility.current: 399.9
# Facility.mode: top-off
# Facility.GUP: 123456
# Facility.SAF: 301027
# Facility.cycle: 2023-2
# Mono.name: Si(111)
# Mono.d_spacing: 3.13519
# Mono.encoder_resolution: 0.0000050 deg/ct
# Mono.angle_offset: 16.0754 deg
# Mono.scan_mode: pseudo channel cut
# Mono.scan_type: step
# Mono.direction: forward in energy
# Sample.name: Sm2Ti2O7
# Sample.prep: Powder in PEG pellet
# Sample.x: 149.848 mm
# Sample.y: 114.690 mm
# Sample.SDD_position: 205.000 mm
# Scan.experimenters: Bruce Ravel
# Scan.edge_energy: 7736.8
# Scan.start_time: 2023-05-08T20:52:51
# Scan.end_time: 2023-05-08T20:58:44
# Scan.transient_id: 75603
# Scan.uid: 9830b31c-9ff8-461c-b996-9876594648e7
# Scan.plot_hint: ln(I0/It)  --  ln($5/$6)
# Column.1: energy eV
# Column.2: requested_energy eV
# Column.3: measurement_time seconds
# Column.4: xmu
# Column.5: I0 nA
# Column.6: It nA
# Column.7: Ir nA
# ///////////
# sample courtesy Martin Stennett, University of Sheffield
# -----------
# energy  requested_energy  measurement_time  xmu  I0  It  Ir
  7536.805  7536.800  0.500  0.754188  147.676  69.4656  4.185599
  7556.820  7556.800  0.500  0.744297  147.309  69.9817  4.261759
  7576.927  7576.800  0.500  0.734362  146.951  70.5087  4.360351
  7596.820  7596.800  0.500  0.724100  146.381  70.9598  4.441930
  7616.826  7616.800  0.500  0.714657  145.521  71.212  4.519515
  7636.818  7636.800  0.500  0.704808  145.604  71.9582  4.633267
  7656.813  7656.800  0.500  0.695029  145.245  72.4861  4.727635
  7676.810  7676.800  0.500  0.685808  144.816  72.9413  4.811155
  7696.776  7696.800  0.500  0.676572  144.449  73.4314  4.902028
  7708.774  7708.800  0.500  0.670907  144.254  73.7491  4.960406
  7712.787  7712.800  0.500  0.669298  144.101  73.7893  4.972819
  7716.786  7716.800  0.500  0.667316  143.953  73.8599  4.987368
  7720.784  7720.800  0.500  0.665075  140.958  72.4856  4.913206
  7724.786  7724.800  0.500  0.663603  143.83  74.0716  5.014748
  7727.282  7727.300  0.500  0.662592  143.735  74.0974  5.017769
  7728.273  7728.300  0.500  0.662485  143.709  74.0917  5.016947
  7729.277  7729.300  0.500  0.661682  143.666  74.1291  5.018541
  7730.277  7730.300  0.500  0.661622  143.635  74.1176  5.016229
  7731.281  7731.300  0.500  0.661248  143.606  74.1305  5.016163
  7732.286  7732.300  0.500  0.660646  143.575  74.159  5.014391
  7733.286  7733.300  0.500  0.660186  143.537  74.1733  5.010507
  7734.284  7734.300  0.500  0.659907  143.501  74.1757  5.002925
  7735.280  7735.300  0.500  0.659598  143.46  74.1774  4.993581
  7736.288  7736.300  0.500  0.659249  143.421  74.1832  4.977596
  7737.290  7737.300  0.500  0.659090  143.353  74.1594  4.952240
  7738.291  7738.300  0.500  0.659021  143.275  74.1245  4.917619
  7739.288  7739.300  0.500  0.658954  143.017  73.9958  4.870594
  7740.290  7740.300  0.500  0.658880  140.254  72.5715  4.746658
  7741.294  7741.300  0.500  0.659369  143.364  74.1449  4.790946
  7742.299  7742.300  0.500  0.659526  143.945  74.4337  4.788411
  7743.300  7743.300  0.500  0.659215  143.892  74.4294  4.758939
  7744.293  7744.300  0.500  0.659580  143.849  74.3799  4.726008
  7745.293  7745.300  0.500  0.659645  143.801  74.3504  4.688389
  7746.297  7746.300  0.500  0.660161  143.761  74.2908  4.639983
  7747.298  7747.300  0.500  0.660218  143.71  74.2604  4.582219
  7748.300  7748.300  0.500  0.660724  143.682  74.2084  4.514160
  7749.297  7749.300  0.500  0.661205  143.648  74.1553  4.443860
  7750.296  7750.300  0.500  0.661424  143.609  74.1191  4.375570
  7751.301  7751.300  0.500  0.661816  143.583  74.0766  4.318013
  7752.304  7752.300  0.500  0.662369  143.55  74.0184  4.274478
  7753.304  7753.300  0.500  0.662544  143.519  73.9893  4.253628
  7754.299  7754.300  0.500  0.662467  143.485  73.9778  4.251105
  7755.298  7755.300  0.500  0.661992  143.451  73.9953  4.260515
  7756.304  7756.300  0.500  0.661447  143.418  74.0184  4.278570
  7757.305  7757.300  0.500  0.660484  143.384  74.0723  4.298769
  7758.305  7758.300  0.500  0.659638  143.352  74.1186  4.317731
  7759.299  7759.300  0.500  0.658654  143.319  74.1745  4.330665
  7760.293  7760.300  0.500  0.657735  143.284  74.2244  4.342854
  7761.298  7761.300  0.500  0.657068  143.253  74.2578  4.350355
  7762.792  7762.790  0.500  0.655912  143.205  74.319  4.362434
  7764.812  7764.810  0.500  0.654867  143.152  74.3691  4.383234
  7766.930  7766.920  0.500  0.654222  143.097  74.3886  4.413536
  7769.106  7769.100  0.500  0.653467  143.038  74.4138  4.454725
  7771.369  7771.360  0.500  0.651951  142.973  74.4932  4.503031
  7773.705  7773.690  0.500  0.650371  142.908  74.5769  4.545661
  7776.112  7776.100  0.500  0.648671  142.841  74.6686  4.581069
  7778.596  7778.580  0.500  0.647101  142.787  74.7577  4.607826
  7781.149  7781.140  0.500  0.645765  142.72  74.8223  4.619859
  7783.793  7783.780  0.500  0.644822  142.649  74.8557  4.618114
  7786.507  7786.500  0.500  0.644163  142.572  74.8648  4.605978
  7789.304  7789.290  0.500  0.643354  142.499  74.8871  4.594276
  7792.162  7792.150  0.500  0.642619  142.427  74.9044  4.580729
  7795.094  7795.090  0.500  0.642164  142.358  74.9019  4.571135
  7798.115  7798.110  0.500  0.640419  142.267  74.9851  4.575700
  7801.219  7801.210  0.500  0.638457  142.183  75.0878  4.584925
  7804.387  7804.380  0.500  0.636934  142.089  75.1525  4.593135
  7807.634  7807.630  0.500  0.635234  142.008  75.2374  4.609157
  7810.956  7810.950  0.500  0.633570  141.897  75.3037  4.626898
  7814.368  7814.350  0.500  0.631936  141.804  75.3776  4.652937
  7817.840  7817.830  0.500  0.630724  141.714  75.4211  4.679319
  7821.378  7821.380  0.500  0.629231  141.609  75.478  4.703016
  7825.010  7825.010  0.500  0.627549  141.501  75.5472  4.719025
  7828.714  7828.710  0.500  0.626235  141.394  75.5895  4.732898
  7832.501  7832.490  0.500  0.624547  140.871  75.4371  4.732422
  7836.359  7836.350  0.500  0.622728  141.178  75.7389  4.770888
  7840.290  7840.280  0.500  0.620915  140.193  75.3469  4.760774
  7844.301  7844.290  0.500  0.618956  140.919  75.8859  4.812881
  7848.389  7848.380  0.500  0.617342  140.722  75.9019  4.829252
  7852.543  7852.540  0.500  0.615354  140.646  76.0121  4.850407
  7856.780  7856.780  0.500  0.613578  140.484  76.0593  4.865934
  7861.096  7861.090  0.500  0.611814  140.399  76.1474  4.879766
  7865.486  7865.480  0.500  0.610104  140.274  76.2103  4.888770
  7869.955  7869.950  0.500  0.608057  140.136  76.2909  4.903214
  7874.498  7874.490  0.500  0.605909  140.009  76.386  4.922942
  7879.115  7879.110  0.500  0.604026  139.876  76.4572  4.943818
  7883.802  7883.800  0.500  0.601885  139.736  76.5445  4.970340
  7888.577  7888.570  0.500  0.599783  139.603  76.6324  4.998512
  7893.432  7893.420  0.500  0.597905  139.464  76.7002  5.023930
  7898.360  7898.350  0.500  0.595916  139.194  76.7039  5.038185
  7903.364  7903.350  0.500  0.593792  139.114  76.8229  5.059471
  7908.439  7908.420  0.500  0.591553  138.979  76.9201  5.076262
  7913.582  7913.570  0.500  0.589585  138.814  76.9805  5.092963
  7918.815  7918.800  0.500  0.587428  138.651  77.0561  5.115851
  7924.119  7924.110  0.500  0.585252  138.497  77.1383  5.140706
  7929.506  7929.490  0.500  0.582895  138.038  77.0637  5.154675
  7934.968  7934.950  0.500  0.580559  138.047  77.2491  5.192137
  7940.494  7940.480  0.500  0.578222  137.744  77.26  5.202963
  7946.109  7946.090  0.500  0.575641  137.841  77.5139  5.248085
  7951.787  7951.770  0.500  0.573346  137.224  77.3444  5.249894
  7957.559  7957.540  0.500  0.571047  137.389  77.6158  5.287441
  7963.384  7963.370  0.500  0.568685  137.157  77.6681  5.307840
  7969.310  7969.290  0.500  0.566127  136.923  77.734  5.333196
  7975.302  7975.280  0.500  0.563792  136.544  77.6998  5.352292
  7981.365  7981.350  0.500  0.561432  135.827  77.4745  5.355431
  7987.512  7987.490  0.500  0.558792  136  77.7781  5.404177
  7993.732  7993.710  0.500  0.556143  135.79  77.8644  5.434050
  8000.006  8000.000  0.500  0.553556  135.55  77.9278  5.458952
  8006.388  8006.370  0.500  0.551211  135.39  78.0189  5.485253
  8012.841  8012.820  0.500  0.548407  135.387  78.236  5.519858
  8019.374  8019.350  0.500  0.546067  135.252  78.3413  5.549671
  8025.970  8025.950  0.500  0.543410  135.022  78.416  5.580691
  8032.636  8032.620  0.500  0.540528  134.799  78.5126  5.614269
  8039.387  8039.370  0.500  0.537888  134.545  78.5719  5.645299
  8046.217  8046.200  0.500  0.535142  134.271  78.6273  5.672475
  8053.128  8053.110  0.500  0.532421  133.948  78.6521  5.698911
  8060.109  8060.090  0.500  0.529502  133.922  78.8661  5.740590
  8067.167  8067.150  0.500  0.527210  133.915  79.0434  5.777259
  8074.294  8074.280  0.500  0.524232  133.757  79.1858  5.811332
  8081.506  8081.490  0.500  0.521295  133.571  79.3078  5.843639
  8088.794  8088.780  0.500  0.518602  133.033  79.2016  5.861923
  8096.156  8096.140  0.500  0.515795  133.103  79.466  5.910815
  8103.589  8103.580  0.500  0.512805  132.777  79.5085  5.942488
  8111.100  8111.090  0.500  0.510248  132.484  79.5362  5.974375
  8118.688  8118.680  0.500  0.507073  132.187  79.6105  6.009360
  8126.350  8126.350  0.500  0.504130  131.899  79.6709  6.043296
  8134.104  8134.090  0.500  0.501226  131.606  79.7255  6.076821
  8141.918  8141.910  0.500  0.498171  131.284  79.7734  6.108730
  8149.818  8149.810  0.500  0.495142  130.964  79.8206  6.141277
  8157.792  8157.780  0.500  0.492153  130.639  79.8605  6.172975
  8165.836  8165.830  0.500  0.489194  130.323  79.9038  6.205620
  8173.959  8173.950  0.500  0.485965  129.995  79.9604  6.241424
  8182.167  8182.150  0.500  0.483022  129.648  79.9817  6.273202
  8190.433  8190.430  0.500  0.480103  129.314  80.0091  6.308799
  8198.788  8198.780  0.500  0.476957  128.978  80.0525  6.346277
  8207.225  8207.210  0.500  0.474034  128.647  80.0812  6.382189
  8215.719  8215.710  0.500  0.470796  128.293  80.1194  6.420505
  8224.296  8224.290  0.500  0.467694  127.947  80.1516  6.455597
  8232.960  8232.950  0.500  0.464446  127.567  80.174  6.490197
  8241.705  8241.690  0.500  0.461243  127.196  80.1969  6.525953
  8250.515  8250.500  0.500  0.458167  126.811  80.2007  6.561224
  8259.395  8259.380  0.500  0.455235  126.416  80.1857  6.595344
  8268.352  8268.340  0.500  0.451857  126.02  80.205  6.636036
  8277.395  8277.380  0.500  0.448517  125.577  80.1901  6.671921
  8281.952  8281.930  0.500  0.446970  125.38  80.1886  6.691356