File: xdidata/Data/Eu/Eu-L3-Eu2TiO5.xdi
# XDI/1.0 BlueSky/1.10.0 BMM/2023-1.0-py310-tiled
# Beamline.name: BMM (06BM) -- Beamline for Materials Measurement (NIST)
# Beamline.xray_source: NSLS-II three-pole wiggler
# Beamline.collimation: paraboloid mirror, 5 nm Rh on 30 nm Pt
# Beamline.focusing: not in use
# Beamline.harmonic_rejection: flat mirror, Si stripe, pitch = 7.0 mrad relative to beam
# Beamline.software: Bluesky 1.10.0, Ophyd 1.7.0, DataBroker 2.0.0b13, Python 3.10.8, 2023-1.0-py310-tiled
# Detector.I0: 10 cm N2
# Detector.I1: 25 cm N2
# Detector.I2: 25 cm N2
# Element.symbol: Eu
# Element.edge: L3
# Element.reference: Eu
# Element.reference_material: Eu2O3
# Facility.name: NSLS-II
# Facility.energy: 3.0
# Facility.current: 400.3
# Facility.mode: top-off
# Facility.GUP: 123456
# Facility.SAF: 301027
# Facility.cycle: 2023-2
# Mono.name: Si(111)
# Mono.d_spacing: 3.13519
# Mono.encoder_resolution: 0.0000050 deg/ct
# Mono.angle_offset: 16.0754 deg
# Mono.scan_mode: pseudo channel cut
# Mono.scan_type: step
# Mono.direction: forward in energy
# Sample.name: Eu2TiO5
# Sample.prep: Powder in PEG pellet
# Sample.x: 149.848 mm
# Sample.y: 114.690 mm
# Sample.SDD_position: 205.000 mm
# Scan.experimenters: Bruce Ravel
# Scan.edge_energy: 6976.9
# Scan.start_time: 2023-05-08T17:54:46
# Scan.end_time: 2023-05-08T18:01:04
# Scan.transient_id: 75466
# Scan.uid: c3750c6d-ddaa-49b8-908a-367c6a850081
# Scan.plot_hint: ln(I0/It)  --  ln($5/$6)
# Column.1: energy eV
# Column.2: requested_energy eV
# Column.3: measurement_time seconds
# Column.4: xmu
# Column.5: I0 nA
# Column.6: It nA
# Column.7: Ir nA
# ///////////
# sample courtesy Martin Stennett, University of Sheffield
# -----------
# energy  requested_energy  measurement_time  xmu  I0  It  Ir
  6776.910  6776.900  0.500  1.415636  151.75  36.8406  9.103873
  6796.915  6796.900  0.500  1.398704  150.972  37.2776  9.325142
  6816.903  6816.900  0.500  1.381985  151.885  38.1353  9.656251
  6836.920  6836.900  0.500  1.364527  152.021  38.8416  9.954219
  6856.914  6856.900  0.500  1.347738  151.932  39.476  10.2383
  6876.912  6876.900  0.500  1.331356  152.301  40.2257  10.5544
  6896.911  6896.900  0.500  1.315403  152.5  40.9259  10.8629
  6916.909  6916.900  0.500  1.299299  152.452  41.577  11.1577
  6936.883  6936.900  0.500  1.283938  152.4  42.2064  11.4413
  6948.978  6948.900  0.500  1.275692  152.439  42.5667  11.5903
  6952.883  6952.900  0.500  1.272841  152.426  42.6845  11.6315
  6956.895  6956.900  0.500  1.271109  152.404  42.7524  11.6512
  6960.892  6960.900  0.500  1.269161  152.42  42.8404  11.6594
  6964.893  6964.900  0.500  1.268613  152.428  42.8659  11.6186
  6967.386  6967.400  0.500  1.269954  152.434  42.8103  11.5326
  6968.383  6968.400  0.500  1.270775  152.435  42.7754  11.4773
  6969.384  6969.400  0.500  1.272405  152.435  42.7057  11.3928
  6970.385  6970.400  0.500  1.274308  152.42  42.6203  11.3021
  6971.388  6971.400  0.500  1.276202  152.411  42.5373  11.2078
  6972.390  6972.400  0.500  1.279202  152.406  42.4083  11.0681
  6973.386  6973.400  0.500  1.283897  152.399  42.2078  10.8511
  6974.391  6974.400  0.500  1.290388  152.395  41.9336  10.556
  6975.391  6975.400  0.500  1.298297  152.395  41.6034  10.1961
  6976.392  6976.400  0.500  1.309061  152.381  41.1542  9.706563
  6977.396  6977.400  0.500  1.323332  152.37  40.568  9.023811
  6978.393  6978.400  0.500  1.342080  152.348  39.8088  8.070634
  6979.395  6979.400  0.500  1.363324  152.352  38.9731  6.888325
  6980.393  6980.400  0.500  1.382153  152.348  38.2451  5.749590
  6981.393  6981.400  0.500  1.393916  152.344  37.7968  4.972537
  6982.396  6982.400  0.500  1.399685  152.337  37.5778  4.545509
  6983.399  6983.400  0.500  1.400197  152.342  37.5597  4.511464
  6984.401  6984.400  0.500  1.395954  152.339  37.7187  4.874184
  6985.396  6985.400  0.500  1.386125  152.336  38.0905  5.496640
  6986.400  6986.400  0.500  1.372709  152.328  38.6028  6.234147
  6987.400  6987.400  0.500  1.359384  152.32  39.1187  6.901120
  6988.399  6988.400  0.500  1.348084  152.326  39.5649  7.437511
  6989.391  6989.400  0.500  1.339707  152.321  39.8963  7.815031
  6990.396  6990.400  0.500  1.333099  152.317  40.1597  8.082101
  6991.398  6991.400  0.500  1.328359  152.304  40.3471  8.255379
  6992.397  6992.400  0.500  1.325342  152.304  40.4691  8.374884
  6993.397  6993.400  0.500  1.322877  152.288  40.5646  8.461783
  6994.401  6994.400  0.500  1.321282  152.271  40.6248  8.521841
  6995.404  6995.400  0.500  1.320356  152.273  40.6629  8.556475
  6996.398  6996.400  0.500  1.319881  152.257  40.6781  8.570556
  6997.399  6997.400  0.500  1.320175  152.259  40.6667  8.572293
  6998.397  6998.400  0.500  1.320135  152.248  40.6653  8.576275
  6999.396  6999.400  0.500  1.320099  152.232  40.6626  8.584489
  7000.398  7000.400  0.500  1.319836  152.24  40.6753  8.602926
  7001.402  7001.400  0.500  1.319209  152.233  40.699  8.622641
  7002.893  7002.890  0.500  1.317272  152.23  40.7771  8.658183
  7004.924  7004.910  0.500  1.314706  152.223  40.88  8.674964
  7007.027  7007.020  0.500  1.313907  152.216  40.9107  8.611951
  7009.217  7009.200  0.500  1.314997  152.189  40.859  8.470047
  7011.469  7011.460  0.500  1.317949  152.183  40.7368  8.296284
  7013.801  7013.790  0.500  1.320678  152.154  40.618  8.136475
  7016.208  7016.200  0.500  1.322496  152.15  40.5434  8.033206
  7018.685  7018.680  0.500  1.321775  152.144  40.5708  8.024912
  7021.243  7021.240  0.500  1.317210  152.13  40.7529  8.125765
  7023.894  7023.880  0.500  1.311477  152.111  40.9819  8.282678
  7026.609  7026.600  0.500  1.306334  152.104  41.1913  8.448069
  7029.403  7029.390  0.500  1.302621  152.092  41.3415  8.583663
  7032.253  7032.250  0.500  1.299643  152.073  41.4595  8.685064
  7035.199  7035.190  0.500  1.297107  152.055  41.5598  8.761233
  7038.219  7038.210  0.500  1.294683  152.042  41.6572  8.817985
  7041.324  7041.310  0.500  1.292716  152.029  41.7358  8.854894
  7044.488  7044.480  0.500  1.290502  152.002  41.8206  8.879595
  7047.737  7047.730  0.500  1.288293  151.97  41.9045  8.889622
  7051.055  7051.050  0.500  1.286661  151.949  41.967  8.881796
  7054.456  7054.450  0.500  1.285022  151.933  42.0313  8.866595
  7057.943  7057.930  0.500  1.283678  151.921  42.0846  8.848948
  7061.490  7061.480  0.500  1.282169  151.939  42.1531  8.845470
  7065.122  7065.110  0.500  1.280409  151.8  42.1889  8.851983
  7068.827  7068.810  0.500  1.277897  151.794  42.2932  8.888245
  7072.602  7072.590  0.500  1.274846  151.762  42.4136  8.940637
  7076.467  7076.450  0.500  1.271272  151.589  42.517  8.993411
  7080.390  7080.380  0.500  1.268326  151.709  42.6762  9.057176
  7084.400  7084.390  0.500  1.265203  151.522  42.7568  9.102211
  7088.490  7088.480  0.500  1.262223  151.603  42.9074  9.163152
  7092.652  7092.640  0.500  1.258978  151.558  43.034  9.227103
  7096.893  7096.880  0.500  1.255052  151.525  43.1938  9.303739
  7101.206  7101.190  0.500  1.251417  151.504  43.3451  9.383862
  7105.602  7105.580  0.500  1.247825  151.456  43.4874  9.462826
  7110.058  7110.050  0.500  1.244814  151.359  43.5907  9.519969
  7114.594  7114.590  0.500  1.242278  151.084  43.6219  9.533794
  7119.217  7119.210  0.500  1.239961  150.944  43.6827  9.536893
  7123.914  7123.900  0.500  1.237600  150.761  43.7326  9.539096
  7128.683  7128.670  0.500  1.234895  150.499  43.7748  9.541991
  7133.526  7133.520  0.500  1.231620  150.231  43.8403  9.559296
  7138.459  7138.450  0.500  1.228005  150.206  43.9919  9.617141
  7143.463  7143.450  0.500  1.224357  150.217  44.1559  9.695708
  7148.533  7148.520  0.500  1.220457  150.225  44.3308  9.789914
  7153.684  7153.670  0.500  1.216832  150.196  44.4831  9.867783
  7158.906  7158.900  0.500  1.213467  150.156  44.6212  9.928557
  7164.223  7164.210  0.500  1.209918  150.048  44.7475  9.980990
  7169.598  7169.590  0.500  1.206028  149.914  44.8818  10.0331
  7175.061  7175.050  0.500  1.202026  149.811  45.0309  10.0915
  7180.591  7180.580  0.500  1.197792  149.73  45.1976  10.1573
  7186.200  7186.190  0.500  1.194026  149.669  45.3496  10.2302
  7191.882  7191.870  0.500  1.190042  147.365  44.8296  10.1572
  7197.653  7197.640  0.500  1.186561  149.417  45.6123  10.3791
  7203.486  7203.470  0.500  1.183079  149.318  45.7412  10.4422
  7209.402  7209.390  0.500  1.179276  149.163  45.8678  10.4957
  7215.391  7215.380  0.500  1.175461  149.024  46.0002  10.5444
  7221.465  7221.450  0.500  1.171337  148.888  46.1481  10.5992
  7227.600  7227.590  0.500  1.166920  146.754  45.688  10.5199
  7233.825  7233.810  0.500  1.162991  148.755  46.4934  10.7423
  7240.116  7240.100  0.500  1.158771  148.634  46.6519  10.821
  7246.487  7246.470  0.500  1.154558  148.317  46.7491  10.89
  7252.929  7252.920  0.500  1.150359  148.173  46.9002  10.9707
  7259.458  7259.450  0.500  1.146200  148.212  47.1082  11.0632
  7266.066  7266.050  0.500  1.141982  147.719  47.1497  11.1128
  7272.732  7272.720  0.500  1.137516  148.393  47.5771  11.2505
  7279.484  7279.470  0.500  1.133050  148.531  47.8342  11.344
  7286.308  7286.300  0.500  1.128365  148.204  47.9532  11.4104
  7293.221  7293.210  0.500  1.123884  148.216  48.1724  11.5092
  7300.198  7300.190  0.500  1.119622  147.863  48.263  11.5808
  7307.258  7307.250  0.500  1.115030  148.031  48.5401  11.6931
  7314.387  7314.380  0.500  1.110621  147.875  48.7035  11.7792
  7321.600  7321.590  0.500  1.107009  147.73  48.8316  11.8534
  7328.891  7328.880  0.500  1.102571  147.554  48.9903  11.9336
  7336.251  7336.240  0.500  1.097592  147.435  49.1953  12.023
  7343.688  7343.680  0.500  1.092514  147.181  49.3603  12.1056
  7351.199  7351.190  0.500  1.087733  147.049  49.5524  12.1993
  7358.789  7358.780  0.500  1.082995  146.907  49.7398  12.2967
  7366.461  7366.450  0.500  1.078182  146.716  49.9149  12.3928
  7374.201  7374.190  0.500  1.073321  146.568  50.1075  12.4959
  7382.024  7382.010  0.500  1.068983  146.384  50.262  12.5907
  7389.927  7389.910  0.500  1.064097  146.197  50.4436  12.6908
  7397.897  7397.880  0.500  1.059207  146.037  50.6354  12.7937
  7405.957  7405.930  0.500  1.054302  145.828  50.8118  12.8894
  7414.078  7414.050  0.500  1.049154  145.624  51.0024  12.9883
  7422.271  7422.250  0.500  1.044138  145.401  51.1803  13.0844
  7430.529  7430.530  0.500  1.039208  145.19  51.3588  13.1856
  7438.885  7438.880  0.500  1.034208  144.952  51.5315  13.286
  7447.300  7447.310  0.500  1.029266  144.789  51.7288  13.3981
  7455.808  7455.810  0.500  1.024308  144.521  51.8895  13.5
  7464.379  7464.390  0.500  1.019235  144.249  52.0554  13.6046
  7473.049  7473.050  0.500  1.014350  144.124  52.265  13.7212
  7481.790  7481.790  0.500  1.009572  143.828  52.4072  13.8212
  7490.585  7490.600  0.500  1.004318  143.514  52.5684  13.9236
  7499.465  7499.480  0.500  0.998884  143.272  52.7655  14.033
  7508.416  7508.440  0.500  0.993597  142.967  52.9326  14.1369
  7517.462  7517.480  0.500  0.988509  142.679  53.0953  14.2467
  7526.584  7526.600  0.500  0.983298  142.383  53.2621  14.361
  7535.808  7535.790  0.500  0.977972  142.068  53.4278  14.4799
  7545.044  7545.060  0.500  0.972731  141.74  53.5847  14.5956
  7554.379  7554.400  0.500  0.967378  141.443  53.7593  14.713
  7563.799  7563.820  0.500  0.962012  141.105  53.9197  14.8255
  7573.289  7573.310  0.500  0.956753  140.804  54.0882  14.9364
  7582.873  7582.890  0.500  0.951360  140.458  54.247  15.044
  7592.526  7592.530  0.500  0.946162  140.037  54.3664  15.1401