File: xdidata/Data/Eu/Eu-L1-EuropiumOxide.xdi
# XDI/1.0 BlueSky/1.10.0 BMM/2023-1.0-py310-tiled
# Beamline.name: BMM (06BM) -- Beamline for Materials Measurement (NIST)
# Beamline.xray_source: NSLS-II three-pole wiggler
# Beamline.collimation: paraboloid mirror, 5 nm Rh on 30 nm Pt
# Beamline.focusing: not in use
# Beamline.harmonic_rejection: flat mirror, Pt stripe, pitch = 7.0 mrad relative to beam
# Beamline.software: Bluesky 1.10.0, Ophyd 1.7.0, DataBroker 2.0.0b13, Python 3.10.8, 2023-1.0-py310-tiled
# Detector.I0: 10 cm N2
# Detector.I1: 25 cm N2
# Detector.I2: 25 cm N2
# Element.symbol: Eu
# Element.edge: L1
# Element.reference: Eu
# Element.reference_material: Eu2O3
# Facility.name: NSLS-II
# Facility.energy: 3.0
# Facility.current: 400.2
# Facility.mode: top-off
# Facility.GUP: 301027
# Facility.SAF: 310583
# Facility.cycle: 2023-2
# Mono.name: Si(111)
# Mono.d_spacing: 3.13519
# Mono.encoder_resolution: 0.0000050 deg/ct
# Mono.angle_offset: 16.0754 deg
# Mono.scan_mode: pseudo channel cut
# Mono.scan_type: step
# Mono.direction: forward in energy
# Sample.name: Eu2O3
# Sample.prep: PEG pellet
# Sample.x: 109.138 mm
# Sample.y: 153.150 mm
# Sample.SDD_position: 205.000 mm
# Scan.experimenters: Bruce Ravel
# Scan.edge_energy: 8052.0
# Scan.start_time: 2023-05-28T14:34:35
# Scan.end_time: 2023-05-28T14:42:42
# Scan.transient_id: 78763
# Scan.uid: 97f92405-185c-420c-af31-0743c30560e7
# Scan.plot_hint: ln(It/Ir)  --  ln($6/$7)
# Column.1: energy eV
# Column.2: requested_energy eV
# Column.3: measurement_time seconds
# Column.4: xmu
# Column.5: I0 nA
# Column.6: It nA
# Column.7: Ir nA
# ///////////
# sample courtesy Martin Stennett, University of Sheffield
# -----------
# energy  requested_energy  measurement_time  xmu  I0  It  Ir
  7852.001  7852.000  0.500  1.518279  140.881  165.913  36.3496
  7882.068  7882.000  0.500  1.504526  140.571  166.555  36.9956
  7912.011  7912.000  0.500  1.488954  140.186  167.031  37.6835
  7942.025  7942.000  0.500  1.474221  139.974  167.735  38.4041
  7972.023  7972.000  0.500  1.460200  139.512  168.097  39.0304
  8002.415  8002.000  0.500  1.446364  139.156  168.597  39.6918
  8023.979  8024.000  0.500  1.436122  138.82  168.825  40.1548
  8029.984  8030.000  0.500  1.433584  138.703  168.89  40.2724
  8035.974  8036.000  0.500  1.431253  138.604  168.948  40.3801
  8041.976  8042.000  0.500  1.429407  138.487  168.985  40.4635
  8042.875  8042.900  0.500  1.429185  138.437  168.948  40.4637
  8043.783  8043.800  0.500  1.429055  138.424  168.971  40.4745
  8044.685  8044.700  0.500  1.428891  138.396  168.944  40.4747
  8045.585  8045.600  0.500  1.428696  138.38  168.958  40.486
  8046.485  8046.500  0.500  1.428613  138.35  168.983  40.4952
  8047.388  8047.400  0.500  1.428597  138.319  168.912  40.4789
  8048.289  8048.300  0.500  1.428765  138.3  168.922  40.4745
  8049.198  8049.200  0.500  1.429012  138.274  168.923  40.4646
  8050.091  8050.100  0.500  1.429305  138.258  168.939  40.4567
  8051.003  8051.000  0.500  1.429763  138.221  168.912  40.4317
  8051.893  8051.900  0.500  1.430691  138.18  168.885  40.3878
  8052.795  8052.800  0.500  1.431764  138.153  168.871  40.3411
  8053.699  8053.700  0.500  1.433638  138.104  168.878  40.2674
  8054.598  8054.600  0.500  1.436241  138.064  168.87  40.1606
  8055.503  8055.500  0.500  1.439295  138  168.795  40.0205
  8056.400  8056.400  0.500  1.442232  137.885  168.716  39.8843
  8057.300  8057.300  0.500  1.444813  137.579  168.343  39.6937
  8058.200  8058.200  0.500  1.447167  135.317  165.593  38.9534
  8059.098  8059.100  0.500  1.449488  132.777  162.496  38.1362
  8060.006  8060.000  0.500  1.452375  137.66  168.528  39.4379
  8060.910  8060.900  0.500  1.455235  138.088  169.043  39.4454
  8061.805  8061.800  0.500  1.458799  138.053  169.064  39.31
  8062.703  8062.700  0.500  1.463037  138.003  169.036  39.1372
  8063.596  8063.600  0.500  1.467768  137.97  169.002  38.9448
  8064.492  8064.500  0.500  1.473331  138.442  169.609  38.8677
  8065.405  8065.400  0.500  1.479120  138.393  169.578  38.6364
  8066.301  8066.300  0.500  1.484510  138.317  169.526  38.4168
  8067.203  8067.200  0.500  1.489067  138.236  169.425  38.2194
  8068.095  8068.100  0.500  1.492503  138.1  169.34  38.0693
  8069.003  8069.000  0.500  1.494730  137.724  168.824  37.8687
  8069.903  8069.900  0.500  1.495948  134.809  165.276  37.0278
  8070.800  8070.800  0.500  1.496122  133.452  163.71  36.6707
  8071.698  8071.700  0.500  1.495787  138.104  169.402  37.9582
  8072.601  8072.600  0.500  1.495068  138.361  169.762  38.0664
  8073.505  8073.500  0.500  1.494141  138.317  169.735  38.0955
  8074.406  8074.400  0.500  1.493099  138.252  169.697  38.1267
  8075.298  8075.300  0.500  1.492085  138.199  169.643  38.1532
  8076.189  8076.200  0.500  1.490941  138.116  169.525  38.1704
  8076.993  8077.000  0.500  1.490038  138.017  169.432  38.1838
  8080.025  8080.010  0.500  1.485740  133.311  163.771  37.0671
  8083.217  8083.200  0.500  1.479565  138.213  169.886  38.6894
  8086.568  8086.560  0.500  1.472086  138.065  169.799  38.9598
  8090.087  8090.080  0.500  1.465756  137.664  169.396  39.1141
  8093.798  8093.780  0.500  1.461461  138.065  170.046  39.4333
  8097.663  8097.650  0.500  1.458956  137.98  170.004  39.5224
  8101.709  8101.700  0.500  1.458684  137.912  170.06  39.5461
  8105.922  8105.910  0.500  1.459673  137.795  170.055  39.5059
  8110.301  8110.290  0.500  1.460806  137.724  170.093  39.4699
  8114.861  8114.850  0.500  1.461666  137.649  170.114  39.4409
  8119.600  8119.580  0.500  1.461472  137.567  170.15  39.4568
  8124.499  8124.480  0.500  1.459425  137.478  170.185  39.5459
  8129.569  8129.550  0.500  1.455388  137.387  170.226  39.7155
  8134.800  8134.790  0.500  1.450558  137.294  170.25  39.9133
  8140.218  8140.210  0.500  1.446641  137.191  170.337  40.0905
  8145.796  8145.790  0.500  1.443672  137.082  170.334  40.209
  8151.568  8151.550  0.500  1.441152  136.977  170.358  40.316
  8157.490  8157.480  0.500  1.438052  136.873  170.393  40.4495
  8163.592  8163.580  0.500  1.434590  136.75  170.423  40.597
  8169.864  8169.850  0.500  1.431401  136.636  170.468  40.7374
  8176.306  8176.290  0.500  1.428857  136.512  170.493  40.8472
  8182.910  8182.900  0.500  1.426703  136.378  170.514  40.9404
  8189.706  8189.690  0.500  1.424647  136.269  170.541  41.031
  8196.664  8196.650  0.500  1.421371  136.144  170.577  41.1744
  8203.787  8203.770  0.500  1.417580  136.007  170.598  41.3357
  8211.081  8211.070  0.500  1.413408  135.864  170.667  41.5254
  8218.568  8218.550  0.500  1.409478  135.704  170.646  41.6839
  8226.211  8226.190  0.500  1.406383  135.567  170.667  41.8182
  8234.011  8234.000  0.500  1.403413  135.4  170.699  41.9505
  8241.981  8241.990  0.500  1.400063  135.209  170.676  42.0855
  8250.159  8250.150  0.500  1.396166  135.035  170.663  42.2467
  8258.486  8258.470  0.500  1.392039  134.847  170.685  42.4269
  8266.984  8266.970  0.500  1.388106  134.655  170.628  42.5799
  8275.666  8275.650  0.500  1.384612  134.458  170.627  42.7286
  8284.501  8284.490  0.500  1.381069  134.211  170.511  42.851
  8293.515  8293.500  0.500  1.377137  134.002  170.54  43.0273
  8302.700  8302.690  0.500  1.372804  133.797  170.509  43.2062
  8312.051  8312.050  0.500  1.368512  133.574  170.475  43.3834
  8321.576  8321.570  0.500  1.364200  133.813  171.028  43.7121
  8331.280  8331.270  0.500  1.359968  133.606  170.983  43.8862
  8341.154  8341.150  0.500  1.355928  133.163  170.676  43.9846
  8351.205  8351.190  0.500  1.351594  132.641  170.263  44.0687
  8361.403  8361.400  0.500  1.347469  132.326  170.176  44.2283
  8371.792  8371.790  0.500  1.342565  132.182  170.209  44.4544
  8382.362  8382.350  0.500  1.338088  131.97  170.232  44.6599
  8393.095  8393.080  0.500  1.333836  131.646  170.122  44.8211
  8403.990  8403.980  0.500  1.329369  131.363  170.041  45.0002
  8415.069  8415.050  0.500  1.324728  131.132  169.992  45.1967
  8426.309  8426.290  0.500  1.319925  130.879  169.978  45.4106
  8437.733  8437.710  0.500  1.314992  130.598  169.87  45.6062
  8449.311  8449.290  0.500  1.310045  130.334  169.786  45.8095
  8461.070  8461.050  0.500  1.305085  130.04  169.7  46.0142
  8473.003  8472.980  0.500  1.300314  129.783  169.688  46.231
  8485.099  8485.080  0.500  1.295559  129.48  169.576  46.4206
  8497.384  8497.350  0.500  1.290598  129.155  169.412  46.6063
  8509.812  8509.790  0.500  1.285540  128.845  169.326  46.819
  8522.437  8522.410  0.500  1.280484  128.422  169.08  46.9879
  8535.206  8535.190  0.500  1.275316  128.073  168.937  47.1912
  8548.169  8548.150  0.500  1.270205  127.954  169.066  47.4694
  8561.307  8561.280  0.500  1.265095  127.594  168.887  47.662
  8574.620  8574.580  0.500  1.259912  127.221  168.68  47.8509
  8588.102  8588.050  0.500  1.254597  126.667  168.282  47.9924
  8601.730  8601.700  0.500  1.249115  126.155  167.929  48.155
  8615.523  8615.510  0.500  1.243842  122.875  163.85  47.2338
  8629.512  8629.500  0.500  1.238624  126.52  169.039  48.9845
  8643.711  8643.660  0.500  1.233267  110.675  148.142  43.1597
  8658.013  8657.990  0.500  1.227899  125.362  168.101  49.2381
  8672.510  8672.490  0.500  1.222396  124.965  167.909  49.4531
  8687.209  8687.160  0.500  1.216707  124.52  167.641  49.656
  8702.047  8702.000  0.500  1.211119  123.819  166.998  49.7427
  8717.074  8717.020  0.500  1.205619  123.873  167.401  50.1377
  8732.220  8732.200  0.500  1.200087  123.418  167.092  50.3229
  8747.546  8747.560  0.500  1.194559  122.958  166.794  50.5115
  8763.082  8763.090  0.500  1.188887  122.559  166.577  50.7326
  8778.754  8778.790  0.500  1.183206  122.098  166.27  50.9279
  8794.727  8794.660  0.500  1.177465  121.627  165.978  51.131
  8810.679  8810.710  0.500  1.171760  121.176  165.701  51.3377
  8826.919  8826.920  0.500  1.166071  120.731  165.4  51.5367
  8843.288  8843.310  0.500  1.160206  120.257  165.066  51.7351
  8859.834  8859.870  0.500  1.154613  119.773  164.752  51.9264
  8876.572  8876.600  0.500  1.148748  119.268  164.38  52.114
  8893.464  8893.500  0.500  1.142902  118.757  163.982  52.2927
  8904.836  8904.860  0.500  1.138999  118.375  163.703  52.4079