File: xdidata/Data/Eu/Eu-L1-Eu2Ti2O7.xdi
# XDI/1.0 BlueSky/1.10.0 BMM/2023-1.0-py310-tiled
# Beamline.name: BMM (06BM) -- Beamline for Materials Measurement (NIST)
# Beamline.xray_source: NSLS-II three-pole wiggler
# Beamline.collimation: paraboloid mirror, 5 nm Rh on 30 nm Pt
# Beamline.focusing: not in use
# Beamline.harmonic_rejection: flat mirror, Pt stripe, pitch = 7.0 mrad relative to beam
# Beamline.software: Bluesky 1.10.0, Ophyd 1.7.0, DataBroker 2.0.0b13, Python 3.10.8, 2023-1.0-py310-tiled
# Detector.I0: 10 cm N2
# Detector.I1: 25 cm N2
# Detector.I2: 25 cm N2
# Element.symbol: Eu
# Element.edge: L1
# Element.reference: Eu
# Element.reference_material: Eu2O3
# Facility.name: NSLS-II
# Facility.energy: 3.0
# Facility.current: 399.5
# Facility.mode: top-off
# Facility.GUP: 123456
# Facility.SAF: 301027
# Facility.cycle: 2023-2
# Mono.name: Si(111)
# Mono.d_spacing: 3.13519
# Mono.encoder_resolution: 0.0000050 deg/ct
# Mono.angle_offset: 16.0754 deg
# Mono.scan_mode: pseudo channel cut
# Mono.scan_type: step
# Mono.direction: forward in energy
# Sample.name: Eu2Ti2O7
# Sample.prep: powder on tape
# Sample.x: 123.848 mm
# Sample.y: 114.690 mm
# Sample.SDD_position: 205.000 mm
# Scan.experimenters: Bruce Ravel
# Scan.edge_energy: 8052.0
# Scan.start_time: 2023-05-08T21:09:57
# Scan.end_time: 2023-05-08T21:15:50
# Scan.transient_id: 75615
# Scan.uid: a11347a3-585f-473e-94f1-571af7eb0034
# Scan.plot_hint: ln(I0/It)  --  ln($5/$6)
# Column.1: energy eV
# Column.2: requested_energy eV
# Column.3: measurement_time seconds
# Column.4: xmu
# Column.5: I0 nA
# Column.6: It nA
# Column.7: Ir nA
# ///////////
# material made by Fatih Dogan
# -----------
# energy  requested_energy  measurement_time  xmu  I0  It  Ir
  7852.003  7852.000  0.500  0.746211  135.709  64.3476  17.3246
  7872.051  7872.000  0.500  0.737655  135.323  64.7161  17.5438
  7892.061  7892.000  0.500  0.726895  135.009  65.2642  17.857
  7912.038  7912.000  0.500  0.717629  134.543  65.6444  18.1143
  7932.017  7932.000  0.500  0.708716  134.065  65.9972  18.3585
  7952.022  7952.000  0.500  0.698232  133.571  66.447  18.6401
  7972.021  7972.000  0.500  0.688844  133.308  66.9413  18.9219
  7992.019  7992.000  0.500  0.680139  132.844  67.2918  19.1637
  8011.979  8012.000  0.500  0.671185  132.583  67.7636  19.4497
  8023.981  8024.000  0.500  0.665917  132.213  67.9316  19.587
  8027.985  8028.000  0.500  0.664352  132.117  67.9882  19.6322
  8031.984  8032.000  0.500  0.662433  132.008  68.0628  19.6797
  8035.988  8036.000  0.500  0.660895  131.905  68.1143  19.7176
  8039.987  8040.000  0.500  0.659717  131.78  68.13  19.7434
  8042.471  8042.500  0.500  0.659167  131.701  68.1265  19.7515
  8043.473  8043.500  0.500  0.658689  131.655  68.1351  19.7537
  8044.478  8044.500  0.500  0.658506  132.151  68.4048  19.8354
  8045.474  8045.500  0.500  0.658415  132.11  68.3895  19.8307
  8046.480  8046.500  0.500  0.658264  132.091  68.3898  19.83
  8047.480  8047.500  0.500  0.658430  132.056  68.3605  19.8208
  8048.483  8048.500  0.500  0.658501  131.879  68.2644  19.7878
  8049.489  8049.500  0.500  0.658601  131.986  68.3127  19.7926
  8050.490  8050.500  0.500  0.659132  131.955  68.2605  19.7661
  8051.491  8051.500  0.500  0.659625  131.868  68.1815  19.7258
  8052.492  8052.500  0.500  0.660719  131.853  68.0996  19.676
  8053.488  8053.500  0.500  0.662192  131.793  67.9684  19.5938
  8054.493  8054.500  0.500  0.664607  131.712  67.7628  19.4731
  8055.501  8055.500  0.500  0.667205  131.626  67.5428  19.3428
  8056.500  8056.500  0.500  0.669985  131.4  67.2394  19.1946
  8057.497  8057.500  0.500  0.672895  130.348  66.5075  18.9329
  8058.495  8058.500  0.500  0.675616  125.918  64.0725  18.1888
  8059.492  8059.500  0.500  0.679139  131.024  66.436  18.802
  8060.504  8060.500  0.500  0.682358  131.927  66.6791  18.8095
  8061.499  8061.500  0.500  0.686113  131.853  66.3917  18.6548
  8062.503  8062.500  0.500  0.690430  131.819  66.0888  18.4784
  8063.493  8063.500  0.500  0.694751  131.769  65.7788  18.2872
  8064.492  8064.500  0.500  0.699454  131.631  65.4016  18.0695
  8065.500  8065.500  0.500  0.704878  131.618  65.0413  17.8516
  8066.496  8066.500  0.500  0.710544  131.568  64.6493  17.6455
  8067.501  8067.500  0.500  0.716437  131.476  64.2247  17.4543
  8068.499  8068.500  0.500  0.720574  131.263  63.8561  17.3043
  8069.496  8069.500  0.500  0.722907  129.04  62.628  16.9481
  8070.499  8070.500  0.500  0.723514  127.181  61.6887  16.6877
  8071.500  8071.500  0.500  0.722238  131.442  63.8365  17.2738
  8072.503  8072.500  0.500  0.719713  131.502  64.0274  17.3382
  8073.499  8073.500  0.500  0.716977  131.48  64.1917  17.4011
  8074.498  8074.500  0.500  0.713670  131.415  64.3725  17.4684
  8075.499  8075.500  0.500  0.710466  131.376  64.5604  17.5382
  8076.507  8076.500  0.500  0.707149  131.269  64.7219  17.6031
  8077.992  8077.990  0.500  0.702932  130.843  64.7843  17.6516
  8080.023  8080.010  0.500  0.700031  128.937  64.0263  17.4943
  8082.132  8082.120  0.500  0.700014  131.25  65.176  17.8793
  8084.308  8084.300  0.500  0.699650  131.181  65.1655  17.9612
  8086.571  8086.560  0.500  0.697294  131.061  65.2593  18.0732
  8088.900  8088.890  0.500  0.693128  130.809  65.4056  18.1904
  8091.312  8091.300  0.500  0.688760  125.356  62.9538  17.5644
  8093.789  8093.780  0.500  0.684895  131.153  66.1199  18.4908
  8096.341  8096.340  0.500  0.682503  131.028  66.2151  18.5494
  8098.993  8098.980  0.500  0.681769  130.972  66.2354  18.5641
  8101.706  8101.700  0.500  0.682684  130.866  66.121  18.5259
  8104.502  8104.490  0.500  0.684542  130.768  65.949  18.4619
  8107.368  8107.350  0.500  0.686721  130.68  65.7611  18.391
  8110.298  8110.290  0.500  0.688267  130.65  65.6447  18.3403
  8113.328  8113.310  0.500  0.687542  130.524  65.6291  18.3185
  8116.418  8116.410  0.500  0.685036  130.462  65.762  18.3459
  8119.594  8119.580  0.500  0.681933  130.348  65.9091  18.3916
  8122.846  8122.830  0.500  0.679252  130.311  66.0673  18.4556
  8126.164  8126.150  0.500  0.677134  130.212  66.1568  18.5158
  8129.557  8129.550  0.500  0.675584  130.146  66.2261  18.5864
  8133.042  8133.030  0.500  0.673989  130.021  66.2679  18.6553
  8136.591  8136.580  0.500  0.672401  129.953  66.3388  18.7227
  8140.221  8140.210  0.500  0.670936  129.814  66.3648  18.7727
  8143.922  8143.910  0.500  0.669419  129.692  66.4033  18.8153
  8147.700  8147.690  0.500  0.667595  129.635  66.4949  18.8679
  8151.565  8151.550  0.500  0.665433  129.497  66.5681  18.9168
  8155.496  8155.480  0.500  0.663601  129.411  66.646  18.9732
  8159.505  8159.490  0.500  0.661137  129.372  66.7901  19.0494
  8163.601  8163.580  0.500  0.658643  129.192  66.864  19.1101
  8167.755  8167.740  0.500  0.656531  129.131  66.9733  19.1754
  8171.996  8171.980  0.500  0.654931  129.008  67.0168  19.2167
  8176.309  8176.290  0.500  0.653268  128.903  67.0737  19.2618
  8180.697  8180.680  0.500  0.652100  128.783  67.0894  19.2893
  8185.168  8185.150  0.500  0.650454  128.642  67.1268  19.3167
  8189.704  8189.690  0.500  0.648208  128.568  67.2387  19.3699
  8194.320  8194.310  0.500  0.645457  128.434  67.3535  19.4393
  8199.013  8199.000  0.500  0.643010  128.313  67.4551  19.5076
  8203.781  8203.770  0.500  0.641028  128.201  67.5301  19.5757
  8208.636  8208.620  0.500  0.638779  128.068  67.6116  19.6458
  8213.574  8213.550  0.500  0.636053  127.936  67.7267  19.7303
  8218.562  8218.550  0.500  0.634024  127.829  67.8075  19.7926
  8223.632  8223.620  0.500  0.632222  127.713  67.8679  19.8488
  8228.778  8228.770  0.500  0.630574  127.575  67.9063  19.891
  8234.017  8234.000  0.500  0.628505  127.47  67.9909  19.9512
  8239.345  8239.310  0.500  0.626181  127.322  68.0702  20.0092
  8244.695  8244.690  0.500  0.623698  127.154  68.1491  20.0752
  8250.156  8250.150  0.500  0.620729  127.016  68.2778  20.1577
  8255.701  8255.680  0.500  0.618262  126.868  68.3665  20.233
  8261.304  8261.290  0.500  0.615432  126.689  68.4638  20.3084
  8266.984  8266.970  0.500  0.612930  126.533  68.5509  20.3784
  8272.749  8272.740  0.500  0.610537  126.398  68.6414  20.4471
  8278.584  8278.570  0.500  0.608031  124.759  67.9214  20.269
  8284.510  8284.490  0.500  0.605846  126.021  68.7588  20.5601
  8290.498  8290.480  0.500  0.603433  125.929  68.8747  20.6421
  8296.559  8296.550  0.500  0.600727  125.728  68.9508  20.7147
  8302.700  8302.690  0.500  0.598086  126.054  69.3125  20.8726
  8308.916  8308.910  0.500  0.595283  125.915  69.4304  20.9614
  8315.213  8315.200  0.500  0.592291  125.717  69.5287  21.0446
  8321.576  8321.570  0.500  0.589396  125.518  69.62  21.1228
  8328.029  8328.020  0.500  0.587025  125.397  69.7179  21.2026
  8334.555  8334.550  0.500  0.584469  125.001  69.6757  21.2394
  8341.157  8341.150  0.500  0.581841  124.788  69.7402  21.3079
  8347.836  8347.820  0.500  0.578978  124.473  69.7637  21.3671
  8354.576  8354.570  0.500  0.576403  124.022  69.6901  21.3994
  8361.415  8361.400  0.500  0.573310  123.913  69.8444  21.4948
  8368.319  8368.310  0.500  0.570041  123.751  69.9817  21.5984
  8375.302  8375.290  0.500  0.566997  123.576  70.0953  21.6923
  8382.362  8382.350  0.500  0.563885  123.411  70.22  21.7825
  8389.489  8389.480  0.500  0.561111  123.077  70.2249  21.8352
  8396.711  8396.690  0.500  0.558401  122.855  70.2882  21.9083
  8403.996  8403.980  0.500  0.555356  122.642  70.3803  21.9934
  8411.359  8411.340  0.500  0.552615  122.469  70.4741  22.0812
  8418.798  8418.780  0.500  0.549623  122.181  70.5191  22.1548
  8426.312  8426.290  0.500  0.546459  122.036  70.6585  22.2612
  8433.901  8433.880  0.500  0.543193  121.838  70.7743  22.3611
  8441.565  8441.550  0.500  0.539837  121.597  70.8722  22.4546
  8449.314  8449.290  0.500  0.536822  121.369  70.9528  22.5448
  8457.133  8457.110  0.500  0.533581  121.099  71.0245  22.6308
  8465.031  8465.010  0.500  0.530335  120.869  71.1204  22.7245
  8473.006  8472.980  0.500  0.527317  120.607  71.1808  22.8084
  8481.046  8481.030  0.500  0.524475  120.329  71.2184  22.8818
  8489.173  8489.150  0.500  0.521187  120.065  71.2967  22.9694
  8497.381  8497.350  0.500  0.517816  119.67  71.3019  23.0366
  8505.643  8505.630  0.500  0.514480  119.509  71.4436  23.1479
  8514.008  8513.980  0.500  0.511140  119.164  71.4756  23.2279
  8522.440  8522.410  0.500  0.507755  118.734  71.4596  23.2888
  8530.927  8530.910  0.500  0.504501  102.871  62.1144  20.303
  8539.515  8539.490  0.500  0.501296  118.646  71.8694  23.5612
  8548.172  8548.150  0.500  0.498181  118.26  71.8589  23.6261
  8556.913  8556.890  0.500  0.494622  117.944  71.9222  23.7134
  8565.729  8565.700  0.500  0.491420  117.614  71.9513  23.7958
  8574.607  8574.580  0.500  0.487999  117.311  72.0116  23.8848
  8583.553  8583.540  0.500  0.484524  116.996  72.0682  23.9767
  8592.609  8592.580  0.500  0.480869  105.162  65.0162  21.701
  8597.152  8597.130  0.500  0.479352  115.685  71.6305  23.9447