File: xdidata/Y/Y-K-foil.xdi
# XDI/1.0 BlueSky/1.13.0a3 BMM/2024-2.0-py310-tiled
# Beamline.name: BMM (06BM) -- Beamline for Materials Measurement (NIST)
# Beamline.collimation: paraboloid mirror, 5 nm Rh on 30 nm Pt
# Beamline.xray_source: NSLS-II three-pole wiggler
# Beamline.focusing: not in use
# Beamline.harmonic_rejection: flat mirror, Pt stripe, pitch = 7.0 mrad relative to beam
# Beamline.software: Bluesky 1.13.0a4, Ophyd 1.9.0, DataBroker 2.0.0b45, Python 3.11.6, 2024-2.3-py311-tiled
# Detector.I0: 25 cm N2, NSLS2 IC
# Detector.It: 25 cm N2, NSLS2 IC
# Detector.Ir: 25 cm N2, NSLS2 IC
# Element.edge: K
# Element.symbol: Y
# Element.reference: Y
# Element.reference_material: Y foil
# Facility.name: NSLS-II
# Facility.energy: 3.0
# Facility.GUP: 316837
# Facility.SAF: 314472
# Facility.cycle: 2024-3
# Facility.current: 400.1
# Facility.mode: top-off
# Mono.name: Si(111)
# Mono.d_spacing: 3.13549
# Mono.encoder_resolution: 5e-06
# Mono.angle_offset: 16.094
# Mono.direction: forward
# Mono.scan_type: step
# Mono.scan_mode: pseudo channel cut
# Sample.name: Y foil
# Sample.prep: foil on reference wheel
# Sample.SDD_position: 205
# Sample.x: 99.5883
# Sample.y: 168.835
# Sample.wheel_slot: 5
# Sample.wheel_ring: inner
# Scan.edge_energy: 17038.4
# Scan.experimenters: Bruce Ravel
# Scan.start_time: 2024-10-28T09:25:27
# Scan.end_time: 2024-10-28T09:36:41
# Scan.uid: a1219360-4b83-40b6-aaf3-194f8ad55711
# Scan.transient_id: 1465
# Scan.plot_hint: ln(It/Ir)  --  ln($6/$7)
# Column.1: energy eV
# Column.2: requested_energy eV
# Column.3: measurement_time seconds
# Column.4: xmu
# Column.5: I0 nA
# Column.6: Itrans nA
# Column.7: Irefer nA
# //////////////////////////////////////////////////////////
# Y foil sample provided by Arjen van Veelen, LANL
# ----------------------------------------------------------
# energy requested_energy measurement_time xmu I0 It Ir
16838.4 16838.4 0.500000 -0.110452 20.3594 30.4079 27.2282
16868.5 16868.4 0.500000 -0.113843 22.4329 33.3392 29.7518
16898.5 16898.4 0.500000 -0.112631 22.2575 33.1082 29.5815
16928.4 16928.4 0.500000 -0.111934 21.9853 32.7186 29.2538
16958.4 16958.4 0.500000 -0.112283 21.9581 32.701 29.2279
16988.4 16988.4 0.500000 -0.114377 21.7051 32.3254 28.8317
17010.4 17010.4 0.500000 -0.120262 21.5883 32.1706 28.5253
17016.3 17016.4 0.500000 -0.124465 21.5518 32.1136 28.3553
17022.3 17022.4 0.500000 -0.132091 21.5227 32.0747 28.1058
17028.3 17028.4 0.500000 -0.148946 21.4856 32.0262 27.5943
17029.2 17029.3 0.500000 -0.153363 21.4803 32.0174 27.4651
17030.1 17030.2 0.500000 -0.159148 21.4753 32.0151 27.3047
17031 17031.1 0.500000 -0.166155 21.4728 32.0067 27.1069
17032 17032 0.500000 -0.175973 21.4573 31.9946 26.8319
17032.9 17032.9 0.500000 -0.188811 21.4492 31.9795 26.4772
17033.8 17033.8 0.500000 -0.208053 21.4473 31.9777 25.9711
17034.7 17034.7 0.500000 -0.236526 21.4441 31.9753 25.2402
17035.6 17035.6 0.500000 -0.278471 21.434 31.9594 24.1914
17036.5 17036.5 0.500000 -0.339018 21.4297 31.9616 22.7717
17037.4 17037.4 0.500000 -0.407727 21.419 31.9459 21.2492
17038.3 17038.3 0.500000 -0.473478 21.4091 31.9387 19.8924
17039.2 17039.2 0.500000 -0.526091 21.4687 32.0349 18.9298
17040.1 17040.1 0.500000 -0.561485 21.4592 32.0203 18.2632
17041 17041 0.500000 -0.590373 21.4483 32.0085 17.7366
17041.9 17041.9 0.500000 -0.623806 21.4398 31.9917 17.1444
17042.8 17042.8 0.500000 -0.671765 21.4294 31.9817 16.3365
17043.7 17043.7 0.500000 -0.736435 21.426 31.9798 15.3125
17044.6 17044.6 0.500000 -0.813026 21.419 31.972 14.18
17045.5 17045.5 0.500000 -0.899099 21.4063 31.9599 13.0057
17046.4 17046.4 0.500000 -0.983324 21.4021 31.9528 11.9524
17047.3 17047.3 0.500000 -1.059735 21.4004 31.9503 11.0723
17048.2 17048.2 0.500000 -1.117892 21.3773 31.9245 10.4383
17049.1 17049.1 0.500000 -1.154422 21.3715 31.9178 10.0617
17050 17050 0.500000 -1.171516 21.355 31.8948 9.884083
17050.9 17050.9 0.500000 -1.172934 21.346 31.8777 9.864807
17051.8 17051.8 0.500000 -1.164541 21.3336 31.8595 9.942263
17052.7 17052.7 0.500000 -1.151997 21.3283 31.85 10.0648
17053.5 17053.6 0.500000 -1.138200 21.3216 31.8409 10.2017
17054.5 17054.5 0.500000 -1.124722 21.3094 31.8245 10.3348
17055.4 17055.4 0.500000 -1.114518 21.2996 31.8148 10.4376
17056.3 17056.3 0.500000 -1.107003 21.2876 31.7945 10.5096
17057.2 17057.2 0.500000 -1.103947 21.279 31.7817 10.5375
17058.1 17058.1 0.500000 -1.105124 21.2711 31.7683 10.5207
17059 17059 0.500000 -1.111156 21.2568 31.7518 10.452
17059.9 17059.9 0.500000 -1.119324 21.2453 31.7344 10.3613
17060.8 17060.8 0.500000 -1.128358 21.2331 31.7198 10.2634
17061.7 17061.7 0.500000 -1.134347 21.2313 31.7111 10.1993
17062.6 17062.6 0.500000 -1.137558 21.2197 31.6948 10.1614
17063.4 17063.4 0.500000 -1.136784 21.2072 31.6813 10.1649
17066.4 17066.4 0.500000 -1.109518 21.1637 31.6156 10.4242
17069.6 17069.6 0.500000 -1.081395 21.0976 31.5201 10.6892
17072.9 17073 0.500000 -1.074671 20.9666 31.3354 10.6982
17076.5 17076.5 0.500000 -1.066689 20.3895 30.5329 10.5078
17080.2 17080.2 0.500000 -1.070346 17.7289 26.4517 9.070016
17084 17084 0.500000 -1.086348 21.1756 31.5926 10.6608
17088.1 17088.1 0.500000 -1.092565 21.2726 31.7783 10.657
17092.3 17092.3 0.500000 -1.071192 21.2214 31.7082 10.8632
17096.7 17096.7 0.500000 -1.054583 21.1665 31.6257 11.0164
17101.3 17101.2 0.500000 -1.051324 21.1252 31.567 11.0319
17106 17106 0.500000 -1.055395 21.0906 31.5159 10.9693
17110.9 17110.9 0.500000 -1.070257 21.0595 31.469 10.7913
17116 17116 0.500000 -1.074704 21.0253 31.4222 10.7275
17121.2 17121.2 0.500000 -1.058859 21.047 31.4599 10.9119
17126.6 17126.6 0.500000 -1.041289 21.01 31.404 11.0856
17132.2 17132.2 0.500000 -1.040092 20.9756 31.356 11.0819
17138 17138 0.500000 -1.044161 20.936 31.2996 11.0171
17143.9 17143.9 0.500000 -1.045881 20.8897 31.233 10.9747
17150 17150 0.500000 -1.044253 20.8446 31.171 10.9708
17156.3 17156.2 0.500000 -1.034065 20.8119 31.1254 11.0669
17162.7 17162.7 0.500000 -1.023860 20.7695 31.0595 11.1568
17169.3 17169.3 0.500000 -1.020658 20.7331 31.0133 11.1759
17176.1 17176.1 0.500000 -1.024216 20.6895 30.9495 11.1133
17183.1 17183 0.500000 -1.029018 20.6512 30.8952 11.0406
17190.2 17190.2 0.500000 -1.028318 20.6026 30.824 11.0229
17197.5 17197.5 0.500000 -1.018517 20.5616 30.7688 11.1116
17204.9 17205 0.500000 -1.009506 20.5106 30.6965 11.1858
17212.5 17212.6 0.500000 -1.000894 20.4596 30.6199 11.2543
17220.3 17220.4 0.500000 -1.003232 20.4147 30.5626 11.2071
17228.3 17228.4 0.500000 -1.014183 20.3448 30.4561 11.0464
17236.5 17236.5 0.500000 -1.018902 20.2976 30.3934 10.9717
17244.8 17244.9 0.500000 -1.009968 20.2482 30.3205 11.0437
17253.3 17253.4 0.500000 -1.003016 20.1748 30.2058 11.0786
17261.9 17262 0.500000 -0.998775 20.1278 30.1481 11.1045
17270.8 17270.9 0.500000 -0.996290 20.0969 30.1037 11.1157
17279.8 17279.9 0.500000 -0.997785 20.0291 30.0075 11.0636
17289 17289.1 0.500000 -1.001301 19.9912 29.9573 11.0064
17298.4 17298.5 0.500000 -0.999218 19.9248 29.859 10.9931
17307.9 17308 0.500000 -0.991486 19.8813 29.7987 11.0561
17317.7 17317.7 0.500000 -0.986930 19.7948 29.6723 11.0594
17327.6 17327.5 0.500000 -0.983943 19.7617 29.629 11.0763
17337.6 17337.6 0.500000 -0.983466 19.7581 29.6269 11.0808
17347.8 17347.8 0.500000 -0.984125 19.7255 29.5875 11.0588
17358.2 17358.2 0.500000 -0.982413 19.6697 29.5029 11.0461
17368.7 17368.8 0.500000 -0.978620 19.6056 29.4087 11.0526
17379.5 17379.5 0.500000 -0.974245 19.5506 29.3253 11.0697
17390.3 17390.4 0.500000 -0.971721 19.464 29.2089 11.0536
17401.4 17401.5 0.500000 -0.970198 19.4163 29.1428 11.0454
17412.6 17412.7 0.500000 -0.969475 19.3458 29.0355 11.0127
17424 17424.1 0.500000 -0.967465 19.2897 28.9564 11.0048
17435.6 17435.7 0.500000 -0.965276 19.2053 28.8403 10.9846
17447.4 17447.5 0.500000 -0.962329 19.1535 28.7633 10.9876
17459.3 17459.4 0.500000 -0.959114 19.0541 28.614 10.9658
17471.4 17471.5 0.500000 -0.956383 19.0211 28.5721 10.9797
17483.6 17483.8 0.500000 -0.955153 18.9257 28.4374 10.9414
17496.1 17496.2 0.500000 -0.953132 18.8806 28.3751 10.9395
17508.8 17508.8 0.500000 -0.950378 18.8076 28.2698 10.929
17521.5 17521.6 0.500000 -0.947740 18.7357 28.1633 10.9165
17534.5 17534.5 0.500000 -0.944722 18.6631 28.0565 10.908
17547.6 17547.7 0.500000 -0.941942 18.5916 27.9599 10.9007
17560.9 17561 0.500000 -0.939624 18.5242 27.8604 10.8872
17574.5 17574.5 0.500000 -0.937266 18.444 27.7516 10.8702
17588.1 17588.1 0.500000 -0.934428 18.3724 27.644 10.8589
17601.9 17601.9 0.500000 -0.931661 18.3021 27.5406 10.8482
17615.9 17615.9 0.500000 -0.928693 18.2174 27.4163 10.8314
17630.1 17630.1 0.500000 -0.925869 18.134 27.2991 10.8155
17644.4 17644.4 0.500000 -0.922941 18.0653 27.2005 10.8081
17658.9 17658.9 0.500000 -0.920023 17.9935 27.0974 10.7986
17673.6 17673.6 0.500000 -0.917569 17.9074 26.9733 10.7756
17688.4 17688.4 0.500000 -0.914418 17.8275 26.8541 10.7618
17703.5 17703.4 0.500000 -0.911752 17.8029 26.8251 10.7789
17718.6 17718.6 0.500000 -0.908761 17.7123 26.6942 10.7584
17734 17734 0.500000 -0.906042 17.6338 26.5827 10.7426
17749.6 17749.5 0.500000 -0.902950 17.55 26.4605 10.7263
17765.3 17765.2 0.500000 -0.900001 17.4618 26.3288 10.7045
17781 17781.1 0.500000 -0.897226 17.3665 26.1949 10.6797
17797.1 17797.1 0.500000 -0.894451 17.2895 26.0822 10.6632
17813.3 17813.3 0.500000 -0.891229 17.1826 25.922 10.6319
17829.6 17829.7 0.500000 -0.888231 17.1106 25.8216 10.6226
17846.2 17846.3 0.500000 -0.885383 17.0064 25.6733 10.5917
17862.9 17863 0.500000 -0.882278 16.9217 25.5482 10.5728
17879.8 17879.9 0.500000 -0.879327 16.82 25.4001 10.5426
17896.9 17897 0.500000 -0.876227 16.737 25.2779 10.5245
17914.2 17914.2 0.500000 -0.873165 16.6658 25.1747 10.5136
17931.6 17931.6 0.500000 -0.870143 16.5632 25.0267 10.4835
17949.3 17949.2 0.500000 -0.867120 16.4569 24.8696 10.4492
17967 17967 0.500000 -0.863846 16.3612 24.7302 10.4247
17985 17984.9 0.500000 -0.860974 16.2716 24.6026 10.4008
18003.1 18003 0.500000 -0.857780 16.1832 24.4729 10.379
18021.3 18021.3 0.500000 -0.854787 16.0945 24.3399 10.3536
18039.9 18039.7 0.500000 -0.851786 15.9806 24.1717 10.3129
18058.4 18058.3 0.500000 -0.848652 15.9002 24.0574 10.2964
18077.2 18077.1 0.500000 -0.845320 15.8008 23.9129 10.2687
18096.1 18096.1 0.500000 -0.842493 15.7259 23.8058 10.2516
18115.3 18115.2 0.500000 -0.839192 15.6114 23.6347 10.2116
18134.6 18134.5 0.500000 -0.836334 15.4973 23.4671 10.1682