File: xdidata/Y/Y-K-Y2TiO5.xdi
# XDI/1.0 BlueSky/1.10.0 BMM/2023-1.0-py310-tiled
# Beamline.name: BMM (06BM) -- Beamline for Materials Measurement (NIST)
# Beamline.xray_source: NSLS-II three-pole wiggler
# Beamline.collimation: paraboloid mirror, 5 nm Rh on 30 nm Pt
# Beamline.focusing: not in use
# Beamline.harmonic_rejection: flat mirror, Pt stripe, pitch = 7.0 mrad relative to beam
# Beamline.software: Bluesky 1.10.0, Ophyd 1.7.0, DataBroker 2.0.0b13, Python 3.10.8, 2023-1.0-py310-tiled
# Detector.I0: 10 cm N2
# Detector.I1: 25 cm N2
# Detector.I2: 25 cm N2
# Element.symbol: Y
# Element.edge: K
# Element.reference: Y
# Element.reference_material: Y2O3
# Facility.name: NSLS-II
# Facility.energy: 3.0
# Facility.current: 399.5
# Facility.mode: top-off
# Facility.GUP: 301027
# Facility.SAF: 310583
# Facility.cycle: 2023-2
# Mono.name: Si(111)
# Mono.d_spacing: 3.13519
# Mono.encoder_resolution: 0.0000050 deg/ct
# Mono.angle_offset: 16.0754 deg
# Mono.scan_mode: pseudo channel cut
# Mono.scan_type: step
# Mono.direction: forward in energy
# Sample.name: Y2TiO5, stuffed pyrochlore
# Sample.prep: powder in PEG pellet
# Sample.x: 117.785 mm
# Sample.y: 114.695 mm
# Sample.SDD_position: 205.000 mm
# Scan.experimenters: Bruce Ravel
# Scan.edge_energy: 17038.4
# Scan.start_time: 2023-06-23T19:22:19
# Scan.end_time: 2023-06-23T19:29:41
# Scan.transient_id: 84967
# Scan.uid: 3317b479-8dc0-4954-b906-a79525e33cc3
# Scan.plot_hint: ln(I0/It)  --  ln($5/$6)
# Column.1: energy eV
# Column.2: requested_energy eV
# Column.3: measurement_time seconds
# Column.4: xmu
# Column.5: I0 nA
# Column.6: It nA
# Column.7: Ir nA
# ///////////
# sample courtesy Martin Stennett, University of Sheffield
# -----------
# energy  requested_energy  measurement_time  xmu  I0  It  Ir
  16838.305  16838.400  0.500  -0.254172  16.0806  20.7343  15.8708
  16868.369  16868.400  0.500  -0.255978  17.6713  22.8265  17.4953
  16898.379  16898.400  0.500  -0.257755  17.5465  22.7055  17.4226
  16928.371  16928.400  0.500  -0.259015  17.3971  22.5407  17.3073
  16958.383  16958.400  0.500  -0.259911  17.4512  22.631  17.3808
  16988.413  16988.400  0.500  -0.259136  17.2394  22.339  17.1406
  17010.352  17010.400  0.500  -0.255212  17.1371  22.1195  16.9093
  17016.341  17016.400  0.500  -0.252771  17.1122  22.0335  16.8043
  17022.360  17022.400  0.500  -0.248364  17.0787  21.8937  16.6395
  17028.370  17028.400  0.500  -0.241054  17.0652  21.717  16.394
  17029.234  17029.300  0.500  -0.239237  17.0468  21.6543  16.3242
  17030.137  17030.200  0.500  -0.237394  17.0955  21.676  16.3131
  17031.065  17031.100  0.500  -0.235141  17.0896  21.6198  16.241
  17031.942  17032.000  0.500  -0.232461  17.087  21.5586  16.1602
  17032.871  17032.900  0.500  -0.229790  17.0773  21.489  16.0631
  17033.748  17033.800  0.500  -0.226349  17.0704  21.4065  15.9569
  17034.664  17034.700  0.500  -0.222210  17.0689  21.3162  15.8323
  17035.567  17035.600  0.500  -0.217488  17.0605  21.2054  15.6771
  17036.458  17036.500  0.500  -0.211626  17.0652  21.0872  15.5098
  17037.374  17037.400  0.500  -0.203779  17.0538  20.9084  15.2677
  17038.239  17038.300  0.500  -0.193983  17.0406  20.6886  14.9692
  17039.181  17039.200  0.500  -0.179056  17.0392  20.3804  14.5401
  17040.085  17040.100  0.500  -0.158998  17.0303  19.9653  13.9765
  17040.963  17041.000  0.500  -0.131498  17.0254  19.418  13.2525
  17041.879  17041.900  0.500  -0.096434  17.0278  18.7516  12.4119
  17042.771  17042.800  0.500  -0.057156  17.0165  18.0175  11.5407
  17043.713  17043.700  0.500  -0.014176  17.0218  17.2648  10.6698
  17044.579  17044.600  0.500  0.028736  17.0162  16.5342  9.864859
  17045.521  17045.500  0.500  0.078557  17.0017  15.7172  8.997269
  17046.362  17046.400  0.500  0.130111  17.0039  14.9294  8.184187
  17047.343  17047.300  0.500  0.190832  16.9929  14.0407  7.312708
  17048.222  17048.200  0.500  0.250286  16.9853  13.2244  6.546084
  17049.101  17049.100  0.500  0.310336  16.9797  12.4495  5.854172
  17050.006  17050.000  0.500  0.374646  16.9795  11.674  5.194167
  17050.911  17050.900  0.500  0.441626  16.9726  10.9132  4.580795
  17051.841  17051.800  0.500  0.520664  16.9698  10.0822  3.947890
  17052.695  17052.700  0.500  0.602903  16.9579  9.279704  3.382771
  17053.600  17053.600  0.500  0.692275  16.9473  8.481061  2.866303
  17054.493  17054.500  0.500  0.769562  16.9444  7.848931  2.492439
  17055.423  17055.400  0.500  0.821258  16.9371  7.450268  2.278900
  17056.303  17056.300  0.500  0.839852  16.9289  7.309458  2.216102
  17057.196  17057.200  0.500  0.834179  16.9201  7.347239  2.245050
  17058.114  17058.100  0.500  0.816237  16.9178  7.479218  2.314814
  17058.982  17059.000  0.500  0.796098  16.9114  7.628474  2.380449
  17059.875  17059.900  0.500  0.778638  16.8987  7.757044  2.422568
  17060.768  17060.800  0.500  0.765024  16.8878  7.858294  2.443052
  17061.687  17061.700  0.500  0.753540  16.8799  7.945326  2.454177
  17062.580  17062.600  0.500  0.742856  16.8688  8.025384  2.464569
  17063.397  17063.400  0.500  0.732401  16.8603  8.105638  2.479845
  17066.410  17066.410  0.500  0.693857  16.821  8.404524  2.605097
  17069.615  17069.600  0.500  0.645536  16.7262  8.770920  2.943245
  17073.000  17072.960  0.500  0.580337  16.1596  9.044676  3.289190
  17076.515  17076.480  0.500  0.527500  14.35  8.467652  3.279877
  17080.159  17080.180  0.500  0.491743  16.7761  10.2596  4.121746
  17084.035  17084.050  0.500  0.482651  16.8788  10.4166  4.195693
  17088.130  17088.100  0.500  0.511728  16.8624  10.1083  3.960922
  17092.356  17092.310  0.500  0.544532  16.8464  9.772810  3.758378
  17096.724  17096.690  0.500  0.561927  16.8135  9.585558  3.648891
  17101.223  17101.250  0.500  0.578158  16.7879  9.416855  3.481317
  17106.006  17105.980  0.500  0.590688  16.7691  9.289181  3.324398
  17110.908  17110.880  0.500  0.600908  16.7467  9.182435  3.211321
  17115.966  17115.950  0.500  0.604982  16.7378  9.140252  3.212907
  17121.156  17121.190  0.500  0.588328  16.7031  9.274455  3.360396
  17126.607  17126.610  0.500  0.557093  16.6802  9.555625  3.544247
  17132.228  17132.190  0.500  0.534959  16.6533  9.753706  3.698627
  17137.956  17137.950  0.500  0.528457  16.6337  9.805810  3.797867
  17143.907  17143.880  0.500  0.530785  16.6079  9.767816  3.794297
  17150.029  17149.980  0.500  0.533804  16.5748  9.718991  3.736720
  17156.285  17156.250  0.500  0.532576  16.5615  9.723095  3.703237
  17162.701  17162.690  0.500  0.532401  16.5282  9.705241  3.686058
  17169.328  17169.300  0.500  0.533752  16.5055  9.678813  3.681931
  17176.142  17176.090  0.500  0.536911  16.4761  9.631115  3.666586
  17183.077  17183.050  0.500  0.541880  16.5038  9.599468  3.645092
  17190.199  17190.170  0.500  0.541807  16.4753  9.583623  3.613805
  17197.496  17197.470  0.500  0.534140  16.4526  9.644049  3.617754
  17204.955  17204.950  0.500  0.520721  16.4154  9.752253  3.705574
  17212.654  17212.590  0.500  0.510867  16.3786  9.826725  3.834444
  17220.399  17220.400  0.500  0.509199  16.3537  9.828190  3.893600
  17228.438  17228.390  0.500  0.513106  16.3255  9.772983  3.855732
  17236.562  17236.550  0.500  0.518092  16.2781  9.696120  3.753913
  17244.902  17244.870  0.500  0.521075  16.2635  9.658619  3.686919
  17253.368  17253.370  0.500  0.515954  16.2247  9.685028  3.702848
  17262.039  17262.050  0.500  0.510742  16.199  9.720239  3.771185
  17270.927  17270.890  0.500  0.507472  16.1535  9.724682  3.808481
  17279.917  17279.900  0.500  0.508812  16.1262  9.695224  3.789092
  17289.125  17289.090  0.500  0.510478  16.0915  9.658273  3.753236
  17298.487  17298.450  0.500  0.509640  16.0394  9.635066  3.734095
  17308.018  17307.970  0.500  0.505019  16.0109  9.662509  3.756634
  17317.677  17317.670  0.500  0.499369  15.9498  9.680176  3.793979
  17327.558  17327.550  0.500  0.495083  15.9524  9.723309  3.842818
  17337.635  17337.590  0.500  0.492761  15.9055  9.717253  3.868869
  17347.802  17347.800  0.500  0.492865  15.868  9.693374  3.837492
  17358.233  17358.190  0.500  0.492645  15.8271  9.670519  3.800673
  17368.743  17368.750  0.500  0.491134  15.7897  9.662217  3.800020
  17379.543  17379.480  0.500  0.489082  15.7501  9.657794  3.819547
  17390.437  17390.380  0.500  0.485962  15.7111  9.663986  3.827957
  17401.463  17401.450  0.500  0.483206  15.6633  9.661178  3.833213
  17412.730  17412.690  0.500  0.481780  15.6026  9.637437  3.849370
  17424.131  17424.110  0.500  0.480331  15.5804  9.637680  3.858008
  17435.735  17435.690  0.500  0.478193  15.5239  9.623276  3.847859
  17447.447  17447.450  0.500  0.476197  15.4897  9.621266  3.845160
  17459.415  17459.380  0.500  0.473197  15.437  9.617398  3.849906
  17471.480  17471.480  0.500  0.470442  15.4037  9.623120  3.861159
  17483.750  17483.750  0.500  0.468386  15.3433  9.605086  3.870939
  17496.212  17496.190  0.500  0.466394  15.3078  9.601995  3.884343
  17508.853  17508.810  0.500  0.464883  15.2588  9.585715  3.874260
  17521.633  17521.590  0.500  0.462949  15.2112  9.574318  3.866293
  17534.594  17534.550  0.500  0.460552  15.1618  9.566116  3.867227
  17547.682  17547.680  0.500  0.458125  15.1156  9.560108  3.878682
  17561.020  17560.980  0.500  0.455367  15.0651  9.554505  3.889559
  17574.460  17574.450  0.500  0.452459  15.0186  9.552757  3.911298
  17588.192  17588.100  0.500  0.450036  14.9589  9.537861  3.915611
  17601.958  17601.910  0.500  0.447409  14.9134  9.533863  3.905770
  17615.937  17615.900  0.500  0.445169  14.8606  9.521419  3.897699
  17630.102  17630.060  0.500  0.442927  14.8095  9.509956  3.905730
  17644.509  17644.390  0.500  0.440232  14.7582  9.502627  3.919347
  17658.953  17658.890  0.500  0.437572  14.7057  9.494017  3.930555
  17673.653  17673.560  0.500  0.434982  14.6525  9.484194  3.934630
  17688.461  17688.400  0.500  0.432081  14.5916  9.472263  3.932894
  17703.499  17703.420  0.500  0.429731  14.5395  9.460599  3.927838
  17718.674  17718.600  0.500  0.427208  14.4833  9.447841  3.933903
  17734.013  17733.960  0.500  0.424305  14.4279  9.439072  3.941649
  17749.516  17749.490  0.500  0.421768  14.3763  9.429211  3.951437
  17765.241  17765.190  0.500  0.418818  14.3125  9.415100  3.960152
  17781.146  17781.060  0.500  0.416065  14.2612  9.407214  3.958208
  17797.136  17797.110  0.500  0.413538  14.2014  9.391454  3.954482
  17813.377  17813.320  0.500  0.410755  14.1401  9.376972  3.957734
  17829.760  17829.710  0.500  0.408133  14.0809  9.362276  3.963439
  17846.285  17846.270  0.500  0.405373  14.0203  9.347705  3.969729
  17863.036  17863.000  0.500  0.402406  13.9601  9.335274  3.975554
  17879.959  17879.900  0.500  0.399600  13.8998  9.321023  3.977263
  17891.311  17891.260  0.500  0.397656  13.7821  9.260113  3.955018