File: xdidata/Zn/Zn-Hardystonite.xdi
# XDI/1.0 BlueSky/1.10.0 BMM/2023-1.0-py310-tiled
# Beamline.name: BMM (06BM) -- Beamline for Materials Measurement (NIST)
# Beamline.xray_source: NSLS-II three-pole wiggler
# Beamline.collimation: paraboloid mirror, 5 nm Rh on 30 nm Pt
# Beamline.focusing: not in use
# Beamline.harmonic_rejection: flat mirror, Pt stripe, pitch = 7.0 mrad relative to beam
# Beamline.software: Bluesky 1.10.0, Ophyd 1.7.0, DataBroker 2.0.0b13, Python 3.10.8, 2023-1.0-py310-tiled
# Detector.I0: 10 cm N2
# Detector.I1: 25 cm N2
# Detector.I2: 25 cm N2
# Element.symbol: Zn
# Element.edge: K
# Element.reference: Zn
# Element.reference_material: Zn foil
# Facility.name: NSLS-II
# Facility.energy: 3.0
# Facility.current: 399.6
# Facility.mode: top-off
# Facility.GUP: 123456
# Facility.SAF: 301027
# Facility.cycle: 2023-2
# Mono.name: Si(111)
# Mono.d_spacing: 3.13519
# Mono.encoder_resolution: 0.0000050 deg/ct
# Mono.angle_offset: 16.0754 deg
# Mono.scan_mode: pseudo channel cut
# Mono.scan_type: step
# Mono.direction: forward in energy
# Sample.name: Ca2ZnSi2O7
# Sample.prep: powder in PEG pellet
# Sample.x: 116.329 mm
# Sample.y: 114.126 mm
# Sample.SDD_position: 205.000 mm
# Scan.experimenters: Bruce Ravel
# Scan.edge_energy: 9658.6
# Scan.start_time: 2023-05-07T08:56:59
# Scan.end_time: 2023-05-07T09:04:58
# Scan.transient_id: 74855
# Scan.uid: d0290c1c-37f2-4468-8cdf-c84750309cd9
# Scan.plot_hint: ln(I0/It)  --  ln($5/$6)
# Column.1: energy eV
# Column.2: requested_energy eV
# Column.3: measurement_time seconds
# Column.4: xmu
# Column.5: I0 nA
# Column.6: It nA
# Column.7: Ir nA
# ///////////
# sample courtesy Martin Stennett, University of Sheffield
# -----------
# energy  requested_energy  measurement_time  xmu  I0  It  Ir
  9458.619  9458.600  0.500  1.615234  85.2571  16.9529  9.366253
  9488.633  9488.600  0.500  1.595531  84.2146  17.0788  9.487858
  9518.631  9518.600  0.500  1.576157  83.4651  17.2579  9.638505
  9548.635  9548.600  0.500  1.557073  82.5891  17.4058  9.773113
  9578.659  9578.600  0.500  1.538357  81.7424  17.5528  9.903949
  9608.621  9608.600  0.500  1.521294  80.8815  17.6669  10.014
  9630.599  9630.600  0.500  1.511002  80.3291  17.7277  10.0621
  9636.588  9636.600  0.500  1.509574  80.1436  17.7121  10.0504
  9642.581  9642.600  0.500  1.509212  80.0304  17.6934  10.0257
  9648.585  9648.600  0.500  1.512234  79.6616  17.5588  9.914675
  9649.470  9649.500  0.500  1.513120  79.6271  17.5356  9.891912
  9650.367  9650.400  0.500  1.514154  79.709  17.5355  9.878974
  9651.276  9651.300  0.500  1.515783  79.7474  17.5154  9.855628
  9652.173  9652.200  0.500  1.517260  79.723  17.4842  9.820146
  9653.075  9653.100  0.500  1.519551  79.7177  17.443  9.776906
  9653.973  9654.000  0.500  1.521814  79.6365  17.3859  9.719273
  9654.891  9654.900  0.500  1.525024  79.5914  17.3204  9.649029
  9655.785  9655.800  0.500  1.529078  79.5332  17.2377  9.557716
  9656.683  9656.700  0.500  1.534137  79.5706  17.1588  9.453088
  9657.598  9657.600  0.500  1.540656  79.5133  17.035  9.297789
  9658.496  9658.500  0.500  1.549268  79.4684  16.8794  9.073349
  9659.391  9659.400  0.500  1.561231  79.4349  16.6716  8.693961
  9660.286  9660.300  0.500  1.579065  79.4379  16.3775  7.951858
  9661.193  9661.200  0.500  1.606911  79.43  15.9262  6.716226
  9662.096  9662.100  0.500  1.656512  79.3645  15.143  5.468938
  9663.004  9663.000  0.500  1.753984  79.3137  13.7279  4.410271
  9663.895  9663.900  0.500  1.934836  79.2862  11.4527  3.388944
  9664.787  9664.800  0.500  2.255847  79.2567  8.304898  2.328388
  9665.707  9665.700  0.500  2.679340  79.2414  5.436622  1.468781
  9666.603  9666.600  0.500  2.995222  79.0281  3.953420  1.024444
  9667.504  9667.500  0.500  3.091187  79.1119  3.595475  0.885527
  9668.392  9668.400  0.500  3.173857  79.1869  3.313333  0.778861
  9669.305  9669.300  0.500  3.320474  79.1889  2.861545  0.645086
  9670.210  9670.200  0.500  3.328645  79.1673  2.837484  0.617593
  9671.094  9671.100  0.500  3.081944  79.1146  3.628987  0.779010
  9671.996  9672.000  0.500  2.818357  79.0442  4.719251  1.029108
  9672.897  9672.900  0.500  2.692355  79.0362  5.352426  1.218116
  9673.810  9673.800  0.500  2.708712  79.2819  5.281962  1.262118
  9674.708  9674.700  0.500  2.774463  79.3367  4.949255  1.229911
  9675.602  9675.600  0.500  2.817508  79.2848  4.737633  1.205125
  9676.492  9676.500  0.500  2.855483  79.2068  4.556612  1.172560
  9677.410  9677.400  0.500  2.930015  79.1923  4.228570  1.094599
  9678.304  9678.300  0.500  3.040213  79.1974  3.787592  0.981245
  9679.199  9679.200  0.500  3.095028  79.1711  3.584372  0.930282
  9680.097  9680.100  0.500  3.029293  79.1093  3.824918  1.001018
  9680.996  9681.000  0.500  2.926449  79.0818  4.237755  1.124315
  9681.911  9681.900  0.500  2.841832  79.0464  4.609887  1.243780
  9682.807  9682.800  0.500  2.761090  79.1135  5.001777  1.370747
  9683.605  9683.600  0.500  2.698322  79.0892  5.324159  1.473091
  9686.632  9686.610  0.500  2.651001  79.0118  5.576699  1.554511
  9689.823  9689.800  0.500  2.592084  78.9415  5.909865  1.614378
  9693.184  9693.160  0.500  2.482594  78.8129  6.582952  1.732482
  9696.684  9696.680  0.500  2.454605  78.7154  6.761426  1.719471
  9700.387  9700.380  0.500  2.516263  78.6723  6.353635  1.595725
  9704.263  9704.250  0.500  2.553559  78.5294  6.109921  1.566522
  9708.313  9708.300  0.500  2.547384  78.3088  6.130500  1.606668
  9712.530  9712.510  0.500  2.552732  78.3967  6.104649  1.596316
  9716.914  9716.890  0.500  2.608899  78.2893  5.763310  1.489692
  9721.469  9721.450  0.500  2.688491  78.1246  5.311178  1.379553
  9726.188  9726.180  0.500  2.745100  78.0181  5.012029  1.304076
  9731.096  9731.080  0.500  2.739200  77.8019  5.027717  1.295887
  9736.165  9736.150  0.500  2.705813  77.7934  5.197846  1.315552
  9741.403  9741.390  0.500  2.695645  77.6627  5.242144  1.321797
  9746.832  9746.810  0.500  2.650186  77.5252  5.476227  1.415324
  9752.398  9752.390  0.500  2.615793  77.3621  5.655931  1.495771
  9758.168  9758.150  0.500  2.578107  77.2042  5.861155  1.570249
  9764.098  9764.080  0.500  2.553848  77.0286  5.991424  1.615039
  9770.192  9770.180  0.500  2.551911  76.777  5.983434  1.592235
  9776.467  9776.450  0.500  2.568339  76.757  5.884401  1.537889
  9782.920  9782.890  0.500  2.591129  76.04  5.698091  1.464658
  9789.506  9789.500  0.500  2.609232  76.3665  5.619890  1.449856
  9796.276  9796.290  0.500  2.598268  76.1444  5.665320  1.471412
  9803.242  9803.250  0.500  2.572606  75.3326  5.750615  1.511659
  9810.371  9810.370  0.500  2.570141  75.8478  5.804232  1.550482
  9817.662  9817.670  0.500  2.580763  75.545  5.719982  1.555770
  9825.160  9825.150  0.500  2.590232  75.3799  5.653697  1.538733
  9832.786  9832.790  0.500  2.589925  75.1398  5.637414  1.514040
  9840.600  9840.600  0.500  2.572096  74.9368  5.723319  1.533673
  9848.595  9848.590  0.500  2.550855  74.7265  5.829787  1.560541
  9856.759  9856.750  0.500  2.523531  74.5378  5.976140  1.596331
  9865.066  9865.070  0.500  2.503806  74.3551  6.080253  1.625687
  9873.565  9873.570  0.500  2.503751  74.2783  6.074306  1.640529
  9882.244  9882.250  0.500  2.507314  72.8239  5.934191  1.628114
  9891.095  9891.090  0.500  2.506109  73.8674  6.026477  1.673017
  9900.127  9900.100  0.500  2.503271  73.6281  6.024024  1.675011
  9909.308  9909.290  0.500  2.495803  73.412  6.051363  1.677245
  9918.651  9918.650  0.500  2.487269  73.1295  6.079743  1.684798
  9928.200  9928.170  0.500  2.478551  72.7643  6.102358  1.693176
  9937.895  9937.870  0.500  2.470479  72.6253  6.140058  1.708200
  9947.777  9947.750  0.500  2.460354  72.5305  6.194443  1.730385
  9957.799  9957.790  0.500  2.450477  72.0936  6.218243  1.749852
  9968.030  9968.000  0.500  2.439915  70.0142  6.103016  1.734601
  9978.404  9978.390  0.500  2.429243  71.5623  6.304889  1.803061
  9988.981  9988.950  0.500  2.416303  71.3718  6.370001  1.829647
  9999.685  9999.680  0.500  2.404518  70.3705  6.355088  1.830083
  10010.616  10010.580  0.500  2.394999  70.8743  6.461807  1.865592
  10021.663  10021.650  0.500  2.386912  70.4657  6.476713  1.875430
  10032.908  10032.890  0.500  2.379630  69.9696  6.478128  1.881127
  10044.341  10044.310  0.500  2.372901  70.0015  6.524841  1.904795
  10055.919  10055.890  0.500  2.365252  69.6501  6.541930  1.923868
  10067.682  10067.650  0.500  2.355436  69.3585  6.578804  1.946613
  10079.601  10079.580  0.500  2.344370  69.0067  6.618265  1.968019
  10091.703  10091.680  0.500  2.332850  68.7344  6.668532  1.992979
  10103.958  10103.950  0.500  2.321279  68.3887  6.712214  2.013887
  10116.407  10116.390  0.500  2.309842  68.0656  6.757346  2.035914
  10129.030  10129.010  0.500  2.299044  67.753  6.799335  2.055783
  10141.805  10141.790  0.500  2.288371  67.4136  6.837869  2.077374
  10154.760  10154.750  0.500  2.278055  67.0727  6.873834  2.099170
  10167.902  10167.880  0.500  2.267692  66.7439  6.911389  2.122412
  10181.204  10181.180  0.500  2.257532  66.4245  6.948553  2.145310
  10194.653  10194.650  0.500  2.247543  65.8419  6.956761  2.158356
  10208.315  10208.300  0.500  2.237724  65.7514  7.015752  2.188274
  10222.123  10222.110  0.500  2.227408  65.3988  7.050479  2.209171
  10236.128  10236.100  0.500  2.217003  65.0664  7.088010  2.232010
  10250.277  10250.260  0.500  2.205825  64.7374  7.131450  2.254446
  10264.607  10264.590  0.500  2.194671  64.3673  7.170206  2.278062
  10279.115  10279.090  0.500  2.182783  63.9986  7.214394  2.304182
  10293.794  10293.760  0.500  2.171278  63.5838  7.250576  2.327556
  10308.631  10308.600  0.500  2.159946  63.3058  7.301149  2.356074
  10323.640  10323.620  0.500  2.148660  62.9842  7.346492  2.382237
  10338.819  10338.800  0.500  2.137677  62.6162  7.384234  2.406296
  10354.192  10354.160  0.500  2.126951  62.1987  7.414096  2.428458
  10369.719  10369.690  0.500  2.116093  61.8023  7.447269  2.450491
  10385.430  10385.390  0.500  2.105136  61.4569  7.487245  2.475722
  10401.291  10401.260  0.500  2.094289  61.0854  7.523141  2.500668
  10417.344  10417.310  0.500  2.083084  60.6388  7.552298  2.523087
  10433.546  10433.520  0.500  2.071634  60.2859  7.594807  2.550457
  10449.936  10449.910  0.500  2.059968  59.9556  7.641825  2.579173
  10466.498  10466.470  0.500  2.048308  59.4705  7.668894  2.601143
  10483.228  10483.200  0.500  2.036545  59.3528  7.744273  2.640057
  10500.136  10500.100  0.500  2.025105  58.945  7.779563  2.665174
  10511.489  10511.460  0.500  2.017198  58.652  7.802341  2.681964