File: xdidata/Zn/Zn-Hemimorphite.xdi
# XDI/1.0 BlueSky/1.10.0 BMM/2023-1.0-py310-tiled
# Beamline.name: BMM (06BM) -- Beamline for Materials Measurement (NIST)
# Beamline.xray_source: NSLS-II three-pole wiggler
# Beamline.collimation: paraboloid mirror, 5 nm Rh on 30 nm Pt
# Beamline.focusing: not in use
# Beamline.harmonic_rejection: flat mirror, Pt stripe, pitch = 7.0 mrad relative to beam
# Beamline.software: Bluesky 1.10.0, Ophyd 1.7.0, DataBroker 2.0.0b13, Python 3.10.8, 2023-1.0-py310-tiled
# Detector.I0: 10 cm N2
# Detector.I1: 25 cm N2
# Detector.I2: 25 cm N2
# Element.symbol: Zn
# Element.edge: K
# Element.reference: Zn
# Element.reference_material: Zn foil
# Facility.name: NSLS-II
# Facility.energy: 3.0
# Facility.current: 400.0
# Facility.mode: top-off
# Facility.GUP: 123456
# Facility.SAF: 301027
# Facility.cycle: 2023-2
# Mono.name: Si(111)
# Mono.d_spacing: 3.13519
# Mono.encoder_resolution: 0.0000050 deg/ct
# Mono.angle_offset: 16.0754 deg
# Mono.scan_mode: pseudo channel cut
# Mono.scan_type: step
# Mono.direction: forward in energy
# Sample.name: Zn4Si2O7(OH)2Â·H2O
# Sample.prep: powder in PEG pellet
# Sample.x: 116.329 mm
# Sample.y: 114.126 mm
# Sample.SDD_position: 205.000 mm
# Scan.experimenters: Bruce Ravel
# Scan.edge_energy: 9658.6
# Scan.start_time: 2023-05-06T13:31:23
# Scan.end_time: 2023-05-06T13:39:20
# Scan.transient_id: 74825
# Scan.uid: 237a2b16-d41e-4929-bfcb-6a4214067ad9
# Scan.plot_hint: ln(I0/It)  --  ln($5/$6)
# Column.1: energy eV
# Column.2: requested_energy eV
# Column.3: measurement_time seconds
# Column.4: xmu
# Column.5: I0 nA
# Column.6: It nA
# Column.7: Ir nA
# ///////////
# sample courtesy Martin Stennett, University of Sheffield
# -----------
# energy  requested_energy  measurement_time  xmu  I0  It  Ir
  9458.611  9458.600  0.500  1.471377  105.457  24.2139  13.3404
  9488.637  9488.600  0.500  1.453993  104.913  24.5114  13.5794
  9518.627  9518.600  0.500  1.436559  104.355  24.8097  13.8196
  9548.639  9548.600  0.500  1.420024  103.803  25.09  14.0502
  9578.678  9578.600  0.500  1.404366  103.265  25.3538  14.2688
  9608.621  9608.600  0.500  1.391883  102.717  25.5362  14.4353
  9630.591  9630.600  0.500  1.390821  102.291  25.4572  14.4125
  9636.580  9636.600  0.500  1.394564  102.162  25.3303  14.3377
  9642.585  9642.600  0.500  1.402689  102.049  25.0973  14.1862
  9648.593  9648.600  0.500  1.421190  101.704  24.5541  13.8274
  9649.466  9649.500  0.500  1.425573  101.76  24.4602  13.7624
  9650.367  9650.400  0.500  1.430449  101.846  24.3618  13.6891
  9651.268  9651.300  0.500  1.436467  101.846  24.2156  13.5902
  9652.165  9652.200  0.500  1.443600  101.827  24.0389  13.4653
  9653.071  9653.100  0.500  1.451720  101.802  23.8387  13.3246
  9653.981  9654.000  0.500  1.461545  101.779  23.6002  13.1534
  9654.883  9654.900  0.500  1.473338  101.75  23.3169  12.9508
  9655.793  9655.800  0.500  1.488288  101.722  22.9647  12.6912
  9656.695  9656.700  0.500  1.506475  102.026  22.6182  12.4152
  9657.590  9657.600  0.500  1.528872  101.99  22.1094  12.015
  9658.492  9658.500  0.500  1.558642  101.97  21.4566  11.4637
  9659.395  9659.400  0.500  1.600059  101.94  20.58  10.6198
  9660.294  9660.300  0.500  1.660520  101.908  19.3665  9.199065
  9661.197  9661.200  0.500  1.752788  101.889  17.6564  7.252851
  9662.104  9662.100  0.500  1.911962  101.861  15.0541  5.342248
  9662.996  9663.000  0.500  2.183564  101.837  11.4708  3.655764
  9663.887  9663.900  0.500  2.637626  101.818  7.283138  2.149518
  9664.807  9664.800  0.500  3.314414  101.791  3.700657  1.035244
  9665.707  9665.700  0.500  3.988055  101.721  1.885470  0.507839
  9666.591  9666.600  0.500  4.421300  101.541  1.220386  0.314685
  9667.491  9667.500  0.500  4.538987  101.571  1.085208  0.265663
  9668.396  9668.400  0.500  4.558152  101.673  1.065678  0.248711
  9669.301  9669.300  0.500  4.657029  101.669  0.965306  0.216565
  9670.201  9670.200  0.500  4.760733  101.649  0.870050  0.188738
  9671.094  9671.100  0.500  4.757397  101.628  0.872772  0.186528
  9672.000  9672.000  0.500  4.673811  101.598  0.948583  0.206056
  9672.897  9672.900  0.500  4.575042  101.579  1.046865  0.238061
  9673.802  9673.800  0.500  4.475679  101.557  1.155970  0.276321
  9674.704  9674.700  0.500  4.375644  101.524  1.277175  0.317008
  9675.598  9675.600  0.500  4.278496  101.496  1.407096  0.356923
  9676.496  9676.500  0.500  4.183695  101.464  1.546529  0.397092
  9677.406  9677.400  0.500  4.099569  101.438  1.681819  0.434006
  9678.304  9678.300  0.500  4.038543  101.413  1.787214  0.461936
  9679.207  9679.200  0.500  4.000316  101.387  1.856391  0.481466
  9680.089  9680.100  0.500  3.973040  101.365  1.907305  0.498286
  9680.988  9681.000  0.500  3.950809  101.338  1.949661  0.516594
  9681.887  9681.900  0.500  3.936377  101.308  1.977421  0.532487
  9682.798  9682.800  0.500  3.937263  101.283  1.975166  0.539914
  9683.592  9683.600  0.500  3.950575  101.254  1.948495  0.537799
  9686.624  9686.610  0.500  3.991406  101.193  1.869407  0.519334
  9689.819  9689.800  0.500  3.904815  101.128  2.037191  0.554205
  9693.196  9693.160  0.500  3.612292  101.056  2.727481  0.715273
  9696.696  9696.680  0.500  3.587981  100.983  2.792608  0.708316
  9700.724  9700.380  0.500  3.719390  100.857  2.445648  0.613224
  9704.287  9704.250  0.500  3.830253  100.78  2.187333  0.559828
  9708.321  9708.300  0.500  3.960280  100.51  1.915494  0.500627
  9712.534  9712.510  0.500  4.038036  100.667  1.774968  0.462678
  9716.914  9716.890  0.500  4.064885  100.569  1.726255  0.444582
  9721.473  9721.450  0.500  4.091014  100.474  1.680156  0.434974
  9726.201  9726.180  0.500  4.082229  100.377  1.693351  0.438904
  9731.088  9731.080  0.500  4.055036  100.292  1.738555  0.446859
  9736.161  9736.150  0.500  4.030529  100.201  1.780062  0.449304
  9741.407  9741.390  0.500  3.975756  100.11  1.878581  0.472313
  9746.819  9746.810  0.500  3.924244  100.325  1.982131  0.510930
  9752.402  9752.390  0.500  3.904582  100.22  2.019362  0.532629
  9758.177  9758.150  0.500  3.908703  100.107  2.008790  0.536848
  9764.098  9764.080  0.500  3.916937  99.9944  1.990085  0.534629
  9770.196  9770.180  0.500  3.911975  99.8176  1.996447  0.529290
  9776.455  9776.450  0.500  3.906415  99.758  2.006380  0.522589
  9782.900  9782.890  0.500  3.927282  98.3029  1.936284  0.496100
  9789.498  9789.500  0.500  3.965698  99.4599  1.885243  0.485219
  9796.305  9796.290  0.500  3.961279  99.4391  1.893196  0.490155
  9803.258  9803.250  0.500  3.953044  98.7847  1.896289  0.497091
  9810.380  9810.370  0.500  3.944696  99.1474  1.919206  0.511135
  9817.687  9817.670  0.500  3.936039  99.0092  1.933194  0.524310
  9825.164  9825.150  0.500  3.923656  98.8158  1.953460  0.530274
  9832.819  9832.790  0.500  3.905441  98.6515  1.986060  0.531552
  9840.625  9840.600  0.500  3.896389  98.5104  2.001252  0.535022
  9848.608  9848.590  0.500  3.888753  98.3276  2.012848  0.537143
  9856.754  9856.750  0.500  3.880538  98.1585  2.025964  0.539486
  9865.066  9865.070  0.500  3.881423  97.9877  2.020648  0.539021
  9873.591  9873.570  0.500  3.877253  97.7982  2.025170  0.545181
  9882.278  9882.250  0.500  3.865561  95.981  2.010913  0.550621
  9891.082  9891.090  0.500  3.860561  97.3841  2.050537  0.567819
  9900.136  9900.100  0.500  3.860875  97.1895  2.045797  0.567008
  9909.313  9909.290  0.500  3.854216  96.9929  2.055299  0.567951
  9918.656  9918.650  0.500  3.849413  96.7868  2.060806  0.569434
  9928.191  9928.170  0.500  3.844135  96.5068  2.065719  0.571690
  9937.887  9937.870  0.500  3.832700  96.3971  2.087102  0.579097
  9947.768  9947.750  0.500  3.815898  96.139  2.116781  0.589797
  9957.812  9957.790  0.500  3.801007  95.8816  2.142787  0.601532
  9968.026  9968.000  0.500  3.794590  92.7197  2.085463  0.591593
  9978.413  9978.390  0.500  3.786339  95.4898  2.165563  0.617729
  9988.951  9988.950  0.500  3.778489  95.2298  2.176685  0.623674
  9999.698  9999.680  0.500  3.772963  94.4554  2.170950  0.623495
  10010.590  10010.580  0.500  3.763716  94.7615  2.198217  0.632952
  10021.654  10021.650  0.500  3.752943  94.5303  2.216606  0.639729
  10032.913  10032.890  0.500  3.741983  94.1623  2.232308  0.646669
  10044.320  10044.310  0.500  3.733783  94.0724  2.248542  0.654483
  10055.902  10055.890  0.500  3.725975  93.7888  2.259336  0.662495
  10067.674  10067.650  0.500  3.717271  93.5199  2.272552  0.670527
  10079.592  10079.580  0.500  3.706534  93.2469  2.290377  0.679354
  10091.707  10091.680  0.500  3.696307  92.8557  2.304213  0.686876
  10103.962  10103.950  0.500  3.684935  92.6649  2.325777  0.696564
  10116.403  10116.390  0.500  3.673082  92.3846  2.346390  0.704247
  10129.030  10129.010  0.500  3.662550  92.1143  2.364295  0.713081
  10141.809  10141.790  0.500  3.653511  91.8155  2.378024  0.720165
  10154.760  10154.750  0.500  3.643948  91.5317  2.393452  0.728705
  10167.911  10167.880  0.500  3.634191  91.2406  2.409233  0.738047
  10181.208  10181.180  0.500  3.624339  90.9449  2.425204  0.746682
  10194.662  10194.650  0.500  3.614476  90.3696  2.433747  0.753268
  10208.329  10208.300  0.500  3.603530  90.2958  2.458525  0.764500
  10222.146  10222.110  0.500  3.593084  90.2947  2.484310  0.776550
  10236.137  10236.100  0.500  3.582075  89.9605  2.502512  0.785485
  10250.286  10250.260  0.500  3.571149  89.6642  2.521672  0.795190
  10264.607  10264.590  0.500  3.560314  89.3539  2.540323  0.805111
  10279.115  10279.090  0.500  3.549386  89.028  2.558868  0.814910
  10293.794  10293.760  0.500  3.538619  88.7042  2.577162  0.825578
  10308.635  10308.600  0.500  3.527028  88.361  2.597119  0.835895
  10323.649  10323.620  0.500  3.516170  88.0443  2.616061  0.846336
  10338.824  10338.800  0.500  3.505166  87.6988  2.634629  0.856859
  10354.188  10354.160  0.500  3.494430  87.3708  2.653106  0.866702
  10369.719  10369.690  0.500  3.483432  86.9989  2.671030  0.876770
  10385.425  10385.390  0.500  3.473160  86.6539  2.687904  0.886821
  10401.287  10401.260  0.500  3.462027  86.3092  2.707185  0.897725
  10417.348  10417.310  0.500  3.450523  85.9699  2.727743  0.909087
  10433.546  10433.520  0.500  3.438659  85.622  2.749126  0.920757
  10449.936  10449.910  0.500  3.427139  85.2617  2.769277  0.932345
  10466.503  10466.470  0.500  3.415427  84.9042  2.790154  0.943790
  10483.228  10483.200  0.500  3.403671  84.5434  2.811150  0.955873
  10500.136  10500.100  0.500  3.392055  84.1802  2.831776  0.967506
  10511.479  10511.460  0.500  3.384588  83.8736  2.842610  0.974759