File: xdidata/Zn/Zn-K-ZincFoil.xdi
# XDI/1.0 BlueSky/1.10.0 BMM/2023-1.0-py310-tiled
# Beamline.name: BMM (06BM) -- Beamline for Materials Measurement (NIST)
# Beamline.xray_source: NSLS-II three-pole wiggler
# Beamline.collimation: paraboloid mirror, 5 nm Rh on 30 nm Pt
# Beamline.focusing: not in use
# Beamline.harmonic_rejection: flat mirror, Pt stripe, pitch = 7.0 mrad relative to beam
# Beamline.software: Bluesky 1.10.0, Ophyd 1.7.0, DataBroker 2.0.0b13, Python 3.10.8, 2023-1.0-py310-tiled
# Detector.I0: 10 cm N2
# Detector.I1: 25 cm N2
# Detector.I2: 25 cm N2
# Element.symbol: Zn
# Element.edge: K
# Element.reference: Zn
# Element.reference_material: Zn foil
# Facility.name: NSLS-II
# Facility.energy: 3.0
# Facility.current: 399.5
# Facility.mode: top-off
# Facility.GUP: 301027
# Facility.SAF: 310583
# Facility.cycle: 2023-2
# Mono.name: Si(111)
# Mono.d_spacing: 3.13519
# Mono.encoder_resolution: 0.0000050 deg/ct
# Mono.angle_offset: 16.0754 deg
# Mono.scan_mode: pseudo channel cut
# Mono.scan_type: step
# Mono.direction: forward in energy
# Sample.name: Zn foil
# Sample.prep: reference foil
# Sample.x: 109.138 mm
# Sample.y: 153.150 mm
# Sample.SDD_position: 205.000 mm
# Scan.experimenters: Bruce Ravel
# Scan.edge_energy: 9658.6
# Scan.start_time: 2023-05-28T16:55:49
# Scan.end_time: 2023-05-28T17:04:16
# Scan.transient_id: 78854
# Scan.uid: 9b3b008e-5e64-4fbf-a85f-cbcbceb8250a
# Scan.plot_hint: ln(It/Ir)  --  ln($6/$7)
# Column.1: energy eV
# Column.2: requested_energy eV
# Column.3: measurement_time seconds
# Column.4: xmu
# Column.5: I0 nA
# Column.6: It nA
# Column.7: Ir nA
# ///////////
# standard reference foil
# -----------
# energy  requested_energy  measurement_time  xmu  I0  It  Ir
  9458.577  9458.600  0.500  0.717076  108.018  158.326  77.2912
  9488.637  9488.600  0.500  0.710404  107.502  158  77.6486
  9518.678  9518.600  0.500  0.703814  106.97  157.658  77.9924
  9548.635  9548.600  0.500  0.697425  106.815  157.838  78.5821
  9578.627  9578.600  0.500  0.691256  106.314  157.494  78.8963
  9608.637  9608.600  0.500  0.685776  105.737  157.068  79.1152
  9630.571  9630.600  0.500  0.683365  105.321  156.763  79.1518
  9636.568  9636.600  0.500  0.683312  105.166  156.593  79.0704
  9642.589  9642.600  0.500  0.684239  105.108  156.601  79.0013
  9648.581  9648.600  0.500  0.687170  104.904  156.35  78.6435
  9649.466  9649.500  0.500  0.687893  104.738  156.103  78.4628
  9650.363  9650.400  0.500  0.688845  104.744  156.156  78.4145
  9651.260  9651.300  0.500  0.689973  104.851  156.301  78.399
  9652.173  9652.200  0.500  0.691389  104.853  156.332  78.3033
  9653.075  9653.100  0.500  0.692986  104.844  156.333  78.1791
  9653.985  9654.000  0.500  0.695063  104.834  156.347  78.0241
  9654.887  9654.900  0.500  0.697716  104.81  156.311  77.7993
  9655.797  9655.800  0.500  0.701134  104.767  156.249  77.5031
  9656.687  9656.700  0.500  0.705733  104.781  156.285  77.1654
  9657.594  9657.600  0.500  0.711982  104.755  156.258  76.6714
  9658.480  9658.500  0.500  0.721171  104.714  156.216  75.9496
  9659.379  9659.400  0.500  0.736886  104.709  156.216  74.7651
  9660.294  9660.300  0.500  0.768381  104.675  156.179  72.4303
  9661.201  9661.200  0.500  0.840082  104.66  156.176  67.4175
  9662.104  9662.100  0.500  0.979700  104.613  156.121  58.6115
  9663.004  9663.000  0.500  1.136122  104.609  156.124  50.1253
  9663.895  9663.900  0.500  1.253421  104.589  156.107  44.5726
  9664.795  9664.800  0.500  1.336721  104.562  156.069  41.0003
  9665.707  9665.700  0.500  1.390607  104.522  156.036  38.8411
  9666.603  9666.600  0.500  1.427341  104.461  155.928  37.4144
  9667.508  9667.500  0.500  1.467439  104.257  155.664  35.8829
  9668.400  9668.400  0.500  1.516016  104.279  155.711  34.1917
  9669.284  9669.300  0.500  1.562247  104.392  155.878  32.682
  9670.201  9670.200  0.500  1.603313  104.412  155.906  31.3727
  9671.106  9671.100  0.500  1.635622  104.401  155.929  30.3798
  9672.008  9672.000  0.500  1.650939  104.384  155.894  29.9113
  9672.901  9672.900  0.500  1.637424  104.345  155.845  30.3088
  9673.802  9673.800  0.500  1.596623  104.324  155.846  31.5712
  9674.696  9674.700  0.500  1.546076  104.285  155.789  33.196
  9675.598  9675.600  0.500  1.506072  104.272  155.777  34.5481
  9676.508  9676.500  0.500  1.482750  104.248  155.779  35.3637
  9677.394  9677.400  0.500  1.470853  104.23  155.757  35.7819
  9678.296  9678.300  0.500  1.465419  104.209  155.737  35.9723
  9679.187  9679.200  0.500  1.464100  104.193  155.731  36.0183
  9680.093  9680.100  0.500  1.461894  104.177  155.703  36.0916
  9681.000  9681.000  0.500  1.454123  104.139  155.657  36.3622
  9681.903  9681.900  0.500  1.441095  104.122  155.661  36.8401
  9682.815  9682.800  0.500  1.424064  104.08  155.62  37.463
  9683.621  9683.600  0.500  1.410008  104.334  155.95  38.0738
  9686.600  9686.610  0.500  1.390221  104.26  155.905  38.8234
  9689.771  9689.800  0.500  1.402835  104.191  155.87  38.3282
  9693.147  9693.160  0.500  1.437778  104.105  155.748  36.9831
  9696.664  9696.680  0.500  1.475713  104.053  155.706  35.5968
  9700.374  9700.380  0.500  1.494202  103.992  155.696  34.9424
  9704.230  9704.250  0.500  1.481667  103.908  155.629  35.368
  9708.297  9708.300  0.500  1.455575  103.778  155.464  36.2644
  9712.506  9712.510  0.500  1.451055  103.823  155.584  36.4569
  9716.894  9716.890  0.500  1.464548  103.723  155.497  35.9481
  9721.429  9721.450  0.500  1.461447  103.636  155.436  36.0458
  9726.176  9726.180  0.500  1.458582  103.589  155.414  36.1439
  9731.076  9731.080  0.500  1.465282  103.494  155.346  35.8869
  9736.145  9736.150  0.500  1.482511  103.419  155.288  35.2608
  9741.399  9741.390  0.500  1.490695  103.321  155.191  34.9515
  9746.807  9746.810  0.500  1.470074  103.214  155.085  35.6555
  9752.373  9752.390  0.500  1.444117  103.143  155.082  36.5922
  9758.144  9758.150  0.500  1.430333  103.007  154.937  37.0654
  9764.078  9764.080  0.500  1.421339  102.899  154.843  37.3777
  9770.188  9770.180  0.500  1.432382  102.758  154.706  36.9344
  9776.463  9776.450  0.500  1.449494  102.684  154.672  36.2997
  9782.896  9782.890  0.500  1.467640  102.363  154.285  35.5578
  9789.506  9789.500  0.500  1.465851  102.411  154.423  35.6533
  9796.305  9796.290  0.500  1.458588  102.386  154.473  35.925
  9803.262  9803.250  0.500  1.447709  100.663  151.967  35.7286
  9810.388  9810.370  0.500  1.431560  102.087  154.223  36.8493
  9817.674  9817.670  0.500  1.413036  101.939  154.082  37.5039
  9825.164  9825.150  0.500  1.408539  101.756  153.889  37.6259
  9832.782  9832.790  0.500  1.422403  101.628  153.778  37.0811
  9840.609  9840.600  0.500  1.425053  101.47  153.638  36.9493
  9848.608  9848.590  0.500  1.425712  101.316  153.488  36.889
  9856.763  9856.750  0.500  1.427899  101.158  153.378  36.782
  9865.079  9865.070  0.500  1.426610  101.002  153.204  36.7875
  9873.587  9873.570  0.500  1.417916  100.837  153.067  37.0757
  9882.270  9882.250  0.500  1.401714  98.5083  149.646  36.839
  9891.095  9891.090  0.500  1.388752  100.441  152.673  38.0747
  9900.115  9900.100  0.500  1.386059  100.27  152.527  38.1408
  9909.296  9909.290  0.500  1.388999  100.093  152.361  37.9873
  9918.673  9918.650  0.500  1.389137  99.9016  152.175  37.9357
  9928.174  9928.170  0.500  1.387468  99.6615  151.923  37.9362
  9937.887  9937.870  0.500  1.384943  99.5727  151.906  38.0277
  9947.768  9947.750  0.500  1.380450  99.3218  151.622  38.1277
  9957.799  9957.790  0.500  1.373451  99.0643  151.359  38.329
  9968.018  9968.000  0.500  1.362881  97.8799  149.648  38.2982
  9978.413  9978.390  0.500  1.355723  98.7362  151.078  38.9421
  9988.964  9988.950  0.500  1.351512  98.4686  150.778  39.0287
  9999.698  9999.680  0.500  1.348162  95.3742  146.172  37.9634
  10010.599  10010.580  0.500  1.345381  98.0796  150.44  39.1807
  10021.671  10021.650  0.500  1.342512  98.1195  150.607  39.3369
  10032.904  10032.890  0.500  1.339000  97.843  150.316  39.3991
  10044.333  10044.310  0.500  1.333607  97.7504  150.29  39.6052
  10055.911  10055.890  0.500  1.326011  97.4839  150.017  39.8348
  10067.660  10067.650  0.500  1.319295  97.2392  149.761  40.0347
  10079.597  10079.580  0.500  1.313962  96.9772  149.47  40.1704
  10091.689  10091.680  0.500  1.308602  96.5009  148.841  40.2163
  10103.984  10103.950  0.500  1.303842  96.4395  148.901  40.4248
  10116.411  10116.390  0.500  1.299771  96.182  148.624  40.514
  10129.025  10129.010  0.500  1.295625  95.9159  148.348  40.6069
  10141.814  10141.790  0.500  1.290929  95.6308  148.035  40.7119
  10154.787  10154.750  0.500  1.285208  95.3567  147.747  40.8658
  10167.906  10167.880  0.500  1.279094  95.0366  147.37  41.0116
  10181.235  10181.180  0.500  1.273427  94.7804  147.134  41.1784
  10194.676  10194.650  0.500  1.267838  94.3085  146.528  41.2386
  10208.324  10208.300  0.500  1.262531  94.1744  146.451  41.4365
  10222.141  10222.110  0.500  1.257418  93.8869  146.136  41.5593
  10236.110  10236.100  0.500  1.252579  93.5742  145.802  41.6653
  10250.286  10250.260  0.500  1.247578  93.2914  145.461  41.7764
  10264.621  10264.590  0.500  1.242386  92.9822  145.142  41.9017
  10279.120  10279.090  0.500  1.236798  92.6645  144.786  42.0332
  10293.799  10293.760  0.500  1.231234  92.3581  144.461  42.1729
  10308.631  10308.600  0.500  1.225638  92.0539  144.128  42.3117
  10323.645  10323.620  0.500  1.220200  91.5198  143.421  42.3338
  10338.824  10338.800  0.500  1.214737  91.3979  143.346  42.5433
  10354.192  10354.160  0.500  1.209379  91.0722  142.987  42.6647
  10369.705  10369.690  0.500  1.204297  90.7078  142.548  42.7507
  10385.416  10385.390  0.500  1.198883  90.3645  142.152  42.8633
  10401.291  10401.260  0.500  1.193470  90.0339  141.756  42.9757
  10417.348  10417.310  0.500  1.188149  89.6971  141.385  43.0922
  10433.550  10433.520  0.500  1.182529  89.3597  140.994  43.215
  10449.941  10449.910  0.500  1.176972  89.0197  140.578  43.3276
  10466.498  10466.470  0.500  1.171420  88.6722  140.178  43.445
  10483.237  10483.200  0.500  1.166021  88.3095  139.756  43.5486
  10500.127  10500.100  0.500  1.160655  87.9665  139.361  43.6592
  10511.479  10511.460  0.500  1.156973  87.6499  138.957  43.693