File: xdidata/Zn/Zn-Znfoil.xdi
# XDI/1.0 BlueSky/1.10.0 BMM/2023-1.0-py310-tiled
# Beamline.name: BMM (06BM) -- Beamline for Materials Measurement (NIST)
# Beamline.xray_source: NSLS-II three-pole wiggler
# Beamline.collimation: paraboloid mirror, 5 nm Rh on 30 nm Pt
# Beamline.focusing: not in use
# Beamline.harmonic_rejection: flat mirror, Pt stripe, pitch = 7.0 mrad relative to beam
# Beamline.software: Bluesky 1.10.0, Ophyd 1.7.0, DataBroker 2.0.0b13, Python 3.10.8, 2023-1.0-py310-tiled
# Detector.I0: 10 cm N2
# Detector.I1: 25 cm N2
# Detector.I2: 25 cm N2
# Element.symbol: Zn
# Element.edge: K
# Element.reference: Zn
# Element.reference_material: Zn foil
# Facility.name: NSLS-II
# Facility.energy: 3.0
# Facility.current: 398.6
# Facility.mode: top-off
# Facility.GUP: 123456
# Facility.SAF: 301027
# Facility.cycle: 2023-2
# Mono.name: Si(111)
# Mono.d_spacing: 3.13519
# Mono.encoder_resolution: 0.0000050 deg/ct
# Mono.angle_offset: 16.0754 deg
# Mono.scan_mode: pseudo channel cut
# Mono.scan_type: step
# Mono.direction: forward in energy
# Sample.name: Zn metal
# Sample.prep: reference metal
# Sample.x: 116.329 mm
# Sample.y: 114.126 mm
# Sample.SDD_position: 205.000 mm
# Scan.experimenters: Bruce Ravel
# Scan.edge_energy: 9658.6
# Scan.start_time: 2023-05-07T08:48:26
# Scan.end_time: 2023-05-07T08:56:18
# Scan.transient_id: 74850
# Scan.uid: 65de7d81-53ef-489d-9cd7-321bdd96a004
# Scan.plot_hint: ln(It/Ir)  --  ln($6/$7)
# Column.1: energy eV
# Column.2: requested_energy eV
# Column.3: measurement_time seconds
# Column.4: xmu
# Column.5: I0 nA
# Column.6: It nA
# Column.7: Ir nA
# ///////////
# reference foil
# -----------
# energy  requested_energy  measurement_time  xmu  I0  It  Ir
  9458.615  9458.600  0.500  0.592883  83.1212  108.851  60.1653
  9488.614  9488.600  0.500  0.587334  82.1625  107.995  60.0246
  9518.604  9518.600  0.500  0.581951  81.4175  107.412  60.0223
  9548.698  9548.600  0.500  0.576704  80.5616  106.685  59.9298
  9578.635  9578.600  0.500  0.571755  79.7326  105.985  59.832
  9608.621  9608.600  0.500  0.567399  78.9316  105.308  59.7097
  9630.595  9630.600  0.500  0.565724  78.3468  104.782  59.5107
  9636.580  9636.600  0.500  0.566166  78.1809  104.636  59.4015
  9642.581  9642.600  0.500  0.567438  78.176  104.707  59.3663
  9648.573  9648.600  0.500  0.571130  77.854  104.344  58.9428
  9649.462  9649.500  0.500  0.572030  77.8682  104.373  58.9061
  9650.367  9650.400  0.500  0.573207  78.1009  104.703  59.0224
  9651.272  9651.300  0.500  0.574564  78.0582  104.659  58.9178
  9652.190  9652.200  0.500  0.576376  78.2156  104.871  58.9305
  9653.091  9653.100  0.500  0.578318  78.1982  104.855  58.8069
  9653.981  9654.000  0.500  0.581044  78.1333  104.778  58.6041
  9654.883  9654.900  0.500  0.584528  78.1498  104.82  58.4236
  9655.789  9655.800  0.500  0.589250  78.1895  104.896  58.1905
  9656.683  9656.700  0.500  0.595572  78.116  104.788  57.7638
  9657.586  9657.600  0.500  0.604860  78.1237  104.814  57.2443
  9658.492  9658.500  0.500  0.620348  78.1134  104.822  56.3687
  9659.391  9659.400  0.500  0.650406  78.1403  104.874  54.7268
  9660.298  9660.300  0.500  0.723353  78.1232  104.875  50.8773
  9661.197  9661.200  0.500  0.864047  78.1094  104.886  44.2046
  9662.092  9662.100  0.500  1.019175  78.0707  104.861  37.8437
  9662.992  9663.000  0.500  1.136607  77.9391  104.705  33.6006
  9663.895  9663.900  0.500  1.221736  78.0146  104.828  30.8947
  9664.799  9664.800  0.500  1.276109  77.992  104.809  29.2544
  9665.699  9665.700  0.500  1.311559  77.9053  104.703  28.2069
  9666.603  9666.600  0.500  1.350884  77.7137  104.46  27.0562
  9667.500  9667.500  0.500  1.399395  77.7663  104.546  25.7963
  9668.400  9668.400  0.500  1.447163  77.8755  104.707  24.631
  9669.284  9669.300  0.500  1.487905  77.7528  104.553  23.6127
  9670.193  9670.200  0.500  1.520384  77.7457  104.542  22.8558
  9671.102  9671.100  0.500  1.536345  77.6314  104.414  22.4664
  9672.008  9672.000  0.500  1.522554  77.6011  104.381  22.7712
  9672.901  9672.900  0.500  1.479684  77.6128  104.411  23.7754
  9673.798  9673.800  0.500  1.429751  77.5218  104.296  24.9652
  9674.704  9674.700  0.500  1.390677  77.4859  104.242  25.9465
  9675.606  9675.600  0.500  1.367535  77.4166  104.18  26.5382
  9676.504  9676.500  0.500  1.355318  77.3987  104.15  26.8567
  9677.402  9677.400  0.500  1.350057  77.3325  104.063  26.9758
  9678.296  9678.300  0.500  1.348860  77.3207  104.065  27.0086
  9679.199  9679.200  0.500  1.346794  77.2696  104.016  27.0518
  9680.114  9680.100  0.500  1.338858  77.2481  103.995  27.2617
  9681.000  9681.000  0.500  1.325242  77.2568  104.005  27.6382
  9681.895  9681.900  0.500  1.309071  77.332  104.118  28.1193
  9682.794  9682.800  0.500  1.293606  77.3334  104.123  28.5588
  9683.601  9683.600  0.500  1.283712  77.3762  104.196  28.8631
  9686.624  9686.610  0.500  1.275967  77.3259  104.173  29.0809
  9689.803  9689.800  0.500  1.296314  77.3125  104.176  28.4962
  9693.175  9693.160  0.500  1.334004  77.2277  104.121  27.4277
  9696.700  9696.680  0.500  1.368297  77.2331  104.182  26.5185
  9700.403  9700.380  0.500  1.380218  77.1392  104.096  26.1827
  9704.271  9704.250  0.500  1.359720  77.0964  104.057  26.715
  9708.309  9708.300  0.500  1.338206  76.9568  103.921  27.2601
  9712.514  9712.510  0.500  1.339797  77.0205  104.07  27.2558
  9716.894  9716.890  0.500  1.351604  76.9144  103.992  26.9157
  9721.461  9721.450  0.500  1.346824  76.8498  103.955  27.035
  9726.188  9726.180  0.500  1.345279  76.7456  103.872  27.0552
  9731.092  9731.080  0.500  1.354544  76.6164  103.747  26.7736
  9736.153  9736.150  0.500  1.372266  76.5196  103.684  26.2872
  9741.391  9741.390  0.500  1.376421  76.4409  103.639  26.1669
  9746.815  9746.810  0.500  1.352043  76.2884  103.493  26.7749
  9752.402  9752.390  0.500  1.328797  76.1387  103.357  27.3685
  9758.177  9758.150  0.500  1.315825  75.9838  103.19  27.6811
  9764.090  9764.080  0.500  1.309591  75.8468  103.088  27.8267
  9770.205  9770.180  0.500  1.322827  75.5962  102.83  27.392
  9776.467  9776.450  0.500  1.340511  75.5852  102.864  26.9208
  9782.916  9782.890  0.500  1.357250  74.9107  102.026  26.2581
  9789.490  9789.500  0.500  1.353461  75.1494  102.434  26.4633
  9796.330  9796.290  0.500  1.346591  74.9745  102.256  26.5994
  9803.246  9803.250  0.500  1.334978  74.0912  101.137  26.6156
  9810.371  9810.370  0.500  1.318796  74.3804  101.617  27.1781
  9817.670  9817.670  0.500  1.300670  74.4153  101.749  27.7112
  9825.151  9825.150  0.500  1.299903  74.2356  101.584  27.6876
  9832.790  9832.790  0.500  1.313490  73.9533  101.284  27.2333
  9840.600  9840.600  0.500  1.315373  73.7199  101.044  27.1176
  9848.591  9848.590  0.500  1.316679  73.5069  100.848  27.0298
  9856.759  9856.750  0.500  1.319001  73.3436  100.719  26.9324
  9865.066  9865.070  0.500  1.317514  73.1302  100.518  26.9187
  9873.582  9873.570  0.500  1.307760  72.8413  100.187  27.093
  9882.248  9882.250  0.500  1.291794  71.3982  98.3219  27.0166
  9891.099  9891.090  0.500  1.279984  72.382  99.7557  27.7362
  9900.123  9900.100  0.500  1.278788  72.137  99.5241  27.705
  9909.287  9909.290  0.500  1.282023  71.8885  99.2714  27.5454
  9918.664  9918.650  0.500  1.282053  71.621  99.0012  27.4696
  9928.191  9928.170  0.500  1.280654  71.3215  98.6879  27.421
  9937.882  9937.870  0.500  1.278147  71.2586  98.697  27.4923
  9947.777  9947.750  0.500  1.273857  71.0095  98.4519  27.542
  9957.799  9957.790  0.500  1.266871  70.9244  98.4401  27.7317
  9968.022  9968.000  0.500  1.256603  68.8947  95.7073  27.2401
  9978.413  9978.390  0.500  1.250166  70.4727  98.0156  28.0773
  9988.964  9988.950  0.500  1.246356  70.2905  97.8747  28.1439
  9999.702  9999.680  0.500  1.243635  69.3295  96.6366  27.8636
  10010.590  10010.580  0.500  1.241019  69.7882  97.3837  28.1526
  10021.671  10021.650  0.500  1.238493  69.3699  96.9003  28.0837
  10032.917  10032.890  0.500  1.235300  68.9554  96.4406  28.0399
  10044.324  10044.310  0.500  1.229971  68.9469  96.5323  28.2165
  10055.911  10055.890  0.500  1.222803  68.6386  96.214  28.3258
  10067.660  10067.650  0.500  1.216492  68.3864  95.9823  28.4365
  10079.601  10079.580  0.500  1.211609  68.0768  95.6529  28.4776
  10091.694  10091.680  0.500  1.206690  67.7911  95.3707  28.5336
  10103.980  10103.950  0.500  1.202351  67.477  95.0379  28.5576
  10116.416  10116.390  0.500  1.198620  67.1817  94.7424  28.5753
  10129.025  10129.010  0.500  1.194938  66.8473  94.3899  28.574
  10141.814  10141.790  0.500  1.190406  66.5443  94.0663  28.6053
  10154.774  10154.750  0.500  1.185125  66.2575  93.7847  28.6707
  10167.893  10167.880  0.500  1.179476  65.916  93.3997  28.7148
  10181.190  10181.180  0.500  1.174104  65.65  93.1573  28.7945
  10194.671  10194.650  0.500  1.168999  65.0348  92.4024  28.7074
  10208.315  10208.300  0.500  1.164161  64.929  92.3741  28.8378
  10222.128  10222.110  0.500  1.159479  64.5853  91.9957  28.8544
  10236.128  10236.100  0.500  1.154936  64.2475  91.6342  28.8719
  10250.286  10250.260  0.500  1.150356  63.898  91.2626  28.8868
  10264.603  10264.590  0.500  1.145569  63.5863  90.936  28.9215
  10279.120  10279.090  0.500  1.140384  63.2007  90.5043  28.9339
  10293.799  10293.760  0.500  1.135260  62.7999  90.0565  28.9386
  10308.621  10308.600  0.500  1.130088  62.4761  89.7026  28.9744
  10323.654  10323.620  0.500  1.124993  62.1505  89.3595  29.011
  10338.824  10338.800  0.500  1.120000  61.7503  88.9016  29.0068
  10354.183  10354.160  0.500  1.115265  61.4262  88.5545  29.0307
  10369.719  10369.690  0.500  1.110278  60.9705  88.0156  28.9983
  10385.420  10385.390  0.500  1.105555  60.6035  87.6072  29.0004
  10401.291  10401.260  0.500  1.100502  60.2444  87.2232  29.0195
  10417.344  10417.310  0.500  1.095486  59.7177  86.5749  28.9487
  10433.550  10433.520  0.500  1.090356  59.4451  86.2964  29.0039
  10449.941  10449.910  0.500  1.085323  59.1398  85.9754  29.0418
  10466.498  10466.470  0.500  1.080218  58.6284  85.3508  28.9784
  10483.237  10483.200  0.500  1.075148  58.3178  85.0277  29.0155
  10500.136  10500.100  0.500  1.070179  57.9469  84.6  29.0133
  10511.494  10511.460  0.500  1.066796  57.6261  84.2005  28.9742