File: xdidata/Data/Zr/Zr-K-LithiumZirconate.xdi
# XDI/1.0 BlueSky/1.10.0 BMM/2023-1.0-py310-tiled
# Beamline.name: BMM (06BM) -- Beamline for Materials Measurement (NIST)
# Beamline.xray_source: NSLS-II three-pole wiggler
# Beamline.collimation: paraboloid mirror, 5 nm Rh on 30 nm Pt
# Beamline.focusing: not in use
# Beamline.harmonic_rejection: flat mirror, Pt stripe, pitch = 7.0 mrad relative to beam
# Beamline.software: Bluesky 1.10.0, Ophyd 1.7.0, DataBroker 2.0.0b13, Python 3.10.8, 2023-1.0-py310-tiled
# Detector.I0: 10 cm N2
# Detector.I1: 25 cm N2
# Detector.I2: 25 cm N2
# Element.symbol: Zr
# Element.edge: K
# Element.reference: Zr
# Element.reference_material: Zr foil
# Facility.name: NSLS-II
# Facility.energy: 3.0
# Facility.current: 400.7
# Facility.mode: top-off
# Facility.GUP: 301027
# Facility.SAF: 310583
# Facility.cycle: 2023-2
# Mono.name: Si(111)
# Mono.d_spacing: 3.13519
# Mono.encoder_resolution: 0.0000050 deg/ct
# Mono.angle_offset: 16.0754 deg
# Mono.scan_mode: pseudo channel cut
# Mono.scan_type: step
# Mono.direction: forward in energy
# Sample.name: Li2ZrO3
# Sample.prep: powder in BN pellet
# Sample.x: 117.785 mm
# Sample.y: 114.695 mm
# Sample.SDD_position: 205.000 mm
# Scan.experimenters: Bruce Ravel
# Scan.edge_energy: 17997.6
# Scan.start_time: 2023-06-23T19:56:48
# Scan.end_time: 2023-06-23T20:04:44
# Scan.transient_id: 84989
# Scan.uid: ef646e9b-705e-44d3-a3f7-bd6585b6fa45
# Scan.plot_hint: ln(I0/It)  --  ln($5/$6)
# Column.1: energy eV
# Column.2: requested_energy eV
# Column.3: measurement_time seconds
# Column.4: xmu
# Column.5: I0 nA
# Column.6: It nA
# Column.7: Ir nA
# ///////////
# BMM standards collection
# -----------
# energy  requested_energy  measurement_time  xmu  I0  It  Ir
  17797.442  17797.600  0.500  0.553422  13.4673  7.743433  5.831738
  17827.696  17827.600  0.500  0.548946  13.3301  7.698897  5.805433
  17857.733  17857.600  0.500  0.545890  13.2149  7.655738  5.778128
  17887.689  17887.600  0.500  0.543711  13.0754  7.591453  5.730570
  17917.719  17917.600  0.500  0.545116  12.9714  7.520502  5.676860
  17947.723  17947.600  0.500  0.554985  12.8532  7.378757  5.555537
  17969.467  17969.600  0.500  0.578706  12.6953  7.117276  5.325305
  17975.517  17975.600  0.500  0.592824  12.7426  7.043625  5.249502
  17981.501  17981.600  0.500  0.612204  12.7066  6.888940  5.099415
  17987.516  17987.600  0.500  0.646232  12.6964  6.653124  4.860492
  17988.397  17988.500  0.500  0.653077  12.6866  6.602621  4.809022
  17989.319  17989.400  0.500  0.660676  12.6816  6.550065  4.751374
  17990.185  17990.300  0.500  0.668546  12.6743  6.494957  4.692876
  17991.094  17991.200  0.500  0.677602  12.6531  6.425640  4.622092
  17992.003  17992.100  0.500  0.687988  12.6711  6.368306  4.551165
  17992.940  17993.000  0.500  0.700200  12.6635  6.287249  4.459794
  17993.863  17993.900  0.500  0.714439  12.6521  6.192775  4.351418
  17994.758  17994.800  0.500  0.730261  12.6556  6.097236  4.227857
  17995.667  17995.700  0.500  0.749105  12.6496  5.980602  4.071198
  17996.562  17996.600  0.500  0.771459  12.6484  5.847826  3.879856
  17997.457  17997.500  0.500  0.799312  12.644  5.685218  3.634210
  17998.381  17998.400  0.500  0.835894  12.6387  5.478727  3.316960
  17999.276  17999.300  0.500  0.883506  12.6318  5.221138  2.956145
  18000.186  18000.200  0.500  0.950913  12.6304  4.880226  2.555372
  18001.081  18001.100  0.500  1.038976  12.6203  4.465290  2.183582
  18001.963  18002.000  0.500  1.147352  12.6132  4.004392  1.866030
  18002.844  18002.900  0.500  1.271266  12.6134  3.537750  1.603158
  18003.740  18003.800  0.500  1.404111  12.6189  3.099023  1.379257
  18004.678  18004.700  0.500  1.542665  12.6096  2.696065  1.171615
  18005.574  18005.600  0.500  1.677946  12.6213  2.357111  0.990329
  18006.484  18006.500  0.500  1.816481  12.6134  2.050903  0.823762
  18007.395  18007.400  0.500  1.965964  12.6126  1.766020  0.670145
  18008.277  18008.300  0.500  2.125511  12.6122  1.505543  0.535576
  18009.201  18009.200  0.500  2.309662  12.5959  1.250707  0.412580
  18010.098  18010.100  0.500  2.513103  12.5994  1.020756  0.311293
  18011.023  18011.000  0.500  2.752746  12.5937  0.802881  0.226366
  18011.877  18011.900  0.500  3.015814  12.5806  0.616524  0.162365
  18012.773  18012.800  0.500  3.316074  12.5696  0.456213  0.112932
  18013.670  18013.700  0.500  3.677919  12.5635  0.317548  0.074738
  18014.567  18014.600  0.500  4.068148  12.5457  0.214646  0.048406
  18015.478  18015.500  0.500  4.495503  12.5346  0.139874  0.030430
  18016.361  18016.400  0.500  4.899881  12.5204  0.093245  0.019671
  18017.258  18017.300  0.500  5.282949  12.5086  0.063511  0.012951
  18018.084  18018.200  0.500  5.583812  12.4799  0.046902  0.009217
  18018.924  18019.100  0.500  5.870511  12.4883  0.035235  0.006627
  18019.864  18020.000  0.500  6.114742  12.4746  0.027569  0.004950
  18020.776  18020.900  0.500  6.293095  12.4712  0.023060  0.003907
  18021.730  18021.800  0.500  6.408509  12.4624  0.020532  0.003326
  18022.514  18022.600  0.500  6.462947  12.462  0.019443  0.003049
  18025.578  18025.610  0.500  6.421024  12.4451  0.020248  0.003131
  18028.800  18028.800  0.500  6.224706  12.4215  0.024593  0.004046
  18032.137  18032.160  0.500  6.014150  12.4114  0.030332  0.005212
  18035.690  18035.680  0.500  5.703149  12.395  0.041343  0.007896
  18039.358  18039.380  0.500  5.377273  12.3869  0.057233  0.012109
  18043.227  18043.250  0.500  5.181649  12.3011  0.069117  0.015328
  18047.241  18047.300  0.500  5.052588  12.3593  0.079010  0.017813
  18051.514  18051.510  0.500  4.920554  12.3455  0.090061  0.020800
  18055.904  18055.890  0.500  4.890854  12.3217  0.092598  0.020832
  18060.496  18060.450  0.500  4.920772  12.3024  0.089728  0.019547
  18065.176  18065.180  0.500  5.019725  12.2832  0.081147  0.017516
  18070.060  18070.080  0.500  5.210903  12.2768  0.066992  0.014662
  18075.146  18075.150  0.500  5.448501  12.2523  0.052718  0.011276
  18080.393  18080.390  0.500  5.588008  12.2092  0.045693  0.009678
  18085.859  18085.810  0.500  5.575775  12.198  0.046213  0.009762
  18091.428  18091.390  0.500  5.437865  12.1069  0.052650  0.011110
  18097.145  18097.150  0.500  5.307784  12.1728  0.060291  0.012876
  18103.081  18103.080  0.500  5.215578  12.143  0.065952  0.014504
  18109.222  18109.180  0.500  5.146165  12.0899  0.070383  0.016154
  18115.468  18115.450  0.500  5.131481  12.0836  0.071388  0.016411
  18121.935  18121.890  0.500  5.111018  11.9926  0.072315  0.016583
  18128.478  18128.500  0.500  5.065819  12.0395  0.075954  0.017194
  18135.300  18135.290  0.500  5.048286  11.9976  0.077028  0.017498
  18142.257  18142.250  0.500  5.084735  11.9951  0.074256  0.016852
  18149.393  18149.370  0.500  5.152292  11.9493  0.069140  0.015817
  18156.651  18156.670  0.500  5.221298  11.9436  0.064499  0.015098
  18164.175  18164.150  0.500  5.228000  11.9152  0.063916  0.015011
  18171.821  18171.790  0.500  5.169485  11.8857  0.067600  0.015987
  18179.604  18179.600  0.500  5.085506  11.8501  0.073302  0.017117
  18187.626  18187.590  0.500  5.044487  11.8115  0.076123  0.017783
  18195.756  18195.750  0.500  5.028316  11.7764  0.077133  0.018100
  18204.069  18204.070  0.500  5.039892  11.7582  0.076128  0.018070
  18212.578  18212.570  0.500  5.064474  11.7248  0.074068  0.017837
  18221.241  18221.250  0.500  5.058280  11.6449  0.074020  0.017922
  18230.116  18230.090  0.500  5.018418  11.6544  0.077094  0.018681
  18239.088  18239.100  0.500  5.006747  11.6237  0.077793  0.018705
  18248.332  18248.290  0.500  5.012846  11.5819  0.077042  0.018198
  18257.672  18257.650  0.500  5.026444  11.5451  0.075760  0.018002
  18267.213  18267.170  0.500  5.030177  11.5032  0.075204  0.017976
  18276.910  18276.870  0.500  5.037397  11.4523  0.074333  0.017994
  18286.765  18286.750  0.500  5.029378  11.1639  0.073044  0.017975
  18296.821  18296.790  0.500  4.995042  11.3923  0.077142  0.018925
  18307.020  18307.000  0.500  4.955387  11.3538  0.079991  0.019711
  18317.452  18317.390  0.500  4.929289  11.32  0.081862  0.020075
  18327.940  18327.950  0.500  4.945322  11.2792  0.080270  0.019638
  18338.735  18338.680  0.500  4.957938  11.2333  0.078941  0.019339
  18349.587  18349.580  0.500  4.939938  11.1805  0.079997  0.019928
  18360.704  18360.650  0.500  4.932763  11.1476  0.080336  0.020111
  18371.923  18371.890  0.500  4.917782  11.1106  0.081278  0.020449
  18383.348  18383.310  0.500  4.899289  11.0599  0.082417  0.020720
  18394.937  18394.890  0.500  4.884976  11.0261  0.083350  0.021031
  18406.689  18406.650  0.500  4.882385  10.9707  0.083146  0.020817
  18418.634  18418.580  0.500  4.894839  10.9572  0.082016  0.020716
  18430.714  18430.680  0.500  4.892448  10.9256  0.081975  0.020710
  18442.990  18442.950  0.500  4.867690  10.8692  0.083596  0.021368
  18455.401  18455.390  0.500  4.845741  10.8107  0.084992  0.021847
  18468.009  18468.010  0.500  4.827930  10.7849  0.086312  0.022150
  18480.829  18480.790  0.500  4.817301  10.6669  0.086280  0.022250
  18493.772  18493.750  0.500  4.825148  10.6933  0.085818  0.022167
  18506.929  18506.880  0.500  4.826915  10.6364  0.085210  0.021988
  18520.179  18520.180  0.500  4.812012  10.5881  0.086097  0.022364
  18533.675  18533.650  0.500  4.789421  10.5444  0.087701  0.022821
  18547.402  18547.300  0.500  4.769703  10.4862  0.088953  0.023382
  18561.119  18561.110  0.500  4.759334  10.4345  0.089437  0.023575
  18575.114  18575.100  0.500  4.760130  10.3939  0.089018  0.023456
  18589.313  18589.260  0.500  4.754417  10.3515  0.089163  0.023552
  18603.594  18603.590  0.500  4.739793  10.2898  0.089937  0.023891
  18618.125  18618.090  0.500  4.723993  10.2277  0.090819  0.024228
  18632.831  18632.760  0.500  4.709119  10.1916  0.091854  0.024669
  18647.622  18647.600  0.500  4.691997  10.1387  0.092955  0.025035
  18662.650  18662.620  0.500  4.686374  10.079  0.092929  0.025064
  18677.871  18677.800  0.500  4.679024  10.0277  0.093138  0.025253
  18693.225  18693.160  0.500  4.668286  9.985375  0.093746  0.025529
  18708.727  18708.690  0.500  4.655816  9.921916  0.094319  0.025784
  18724.424  18724.390  0.500  4.642056  9.872077  0.095146  0.026139
  18740.317  18740.260  0.500  4.624137  9.819353  0.096349  0.026566
  18756.391  18756.310  0.500  4.614030  9.750107  0.096641  0.026703
  18772.540  18772.520  0.500  4.598896  9.690731  0.097517  0.026962
  18788.949  18788.910  0.500  4.593293  9.643580  0.097588  0.027161
  18805.573  18805.470  0.500  4.582427  9.590817  0.098114  0.027359
  18822.258  18822.200  0.500  4.569510  9.539075  0.098854  0.027757
  18839.176  18839.100  0.500  4.551483  9.471930  0.099944  0.028126
  18850.554  18850.460  0.500  4.542283  9.449421  0.100627  0.028412