File: xdidata/Data/Zr/Zr-K-ZirconiumFoil.xdi
# XDI/1.0 BlueSky/1.10.0 BMM/2023-1.0-py310-tiled
# Beamline.name: BMM (06BM) -- Beamline for Materials Measurement (NIST)
# Beamline.xray_source: NSLS-II three-pole wiggler
# Beamline.collimation: paraboloid mirror, 5 nm Rh on 30 nm Pt
# Beamline.focusing: not in use
# Beamline.harmonic_rejection: flat mirror, Pt stripe, pitch = 7.0 mrad relative to beam
# Beamline.software: Bluesky 1.10.0, Ophyd 1.7.0, DataBroker 2.0.0b13, Python 3.10.8, 2023-1.0-py310-tiled
# Detector.I0: 10 cm N2
# Detector.I1: 25 cm N2
# Detector.I2: 25 cm N2
# Element.symbol: Zr
# Element.edge: K
# Element.reference: Zr
# Element.reference_material: Zr foil
# Facility.name: NSLS-II
# Facility.energy: 3.0
# Facility.current: 399.9
# Facility.mode: top-off
# Facility.GUP: 301027
# Facility.SAF: 310583
# Facility.cycle: 2023-2
# Mono.name: Si(111)
# Mono.d_spacing: 3.13519
# Mono.encoder_resolution: 0.0000050 deg/ct
# Mono.angle_offset: 16.0754 deg
# Mono.scan_mode: pseudo channel cut
# Mono.scan_type: step
# Mono.direction: forward in energy
# Sample.name: Zr foil
# Sample.prep: reference foil
# Sample.x: 109.138 mm
# Sample.y: 153.150 mm
# Sample.SDD_position: 205.000 mm
# Scan.experimenters: Bruce Ravel
# Scan.edge_energy: 17997.6
# Scan.start_time: 2023-05-28T22:18:31
# Scan.end_time: 2023-05-28T22:26:07
# Scan.transient_id: 79064
# Scan.uid: 071aacf5-2d6b-4c75-bae0-a38b751e8111
# Scan.plot_hint: ln(It/Ir)  --  ln($6/$7)
# Column.1: energy eV
# Column.2: requested_energy eV
# Column.3: measurement_time seconds
# Column.4: xmu
# Column.5: I0 nA
# Column.6: It nA
# Column.7: Ir nA
# ///////////
# standard reference foil
# -----------
# energy  requested_energy  measurement_time  xmu  I0  It  Ir
  17797.719  17797.600  0.500  0.295125  13.4752  25.1651  18.7339
  17827.585  17827.600  0.500  0.294226  13.4062  25.0423  18.6592
  17857.607  17857.600  0.500  0.293279  13.3245  24.8941  18.5664
  17887.619  17887.600  0.500  0.292884  13.2148  24.6969  18.4266
  17917.606  17917.600  0.500  0.292842  13.123  24.5295  18.3024
  17947.624  17947.600  0.500  0.295429  13.0395  24.3745  18.1398
  17969.552  17969.600  0.500  0.301979  12.9128  24.1485  17.8543
  17975.503  17975.600  0.500  0.306301  12.9529  24.222  17.8314
  17981.486  17981.600  0.500  0.312813  12.9306  24.1783  17.6837
  17987.559  17987.600  0.500  0.326588  12.9255  24.1699  17.4357
  17988.425  17988.500  0.500  0.329939  12.9096  24.1459  17.3602
  17989.348  17989.400  0.500  0.333724  12.908  24.1422  17.2919
  17990.214  17990.300  0.500  0.337571  12.9066  24.1359  17.221
  17991.179  17991.200  0.500  0.343452  12.8981  24.1234  17.1112
  17992.045  17992.100  0.500  0.349945  12.8978  24.1211  16.9988
  17992.954  17993.000  0.500  0.358123  12.898  24.1206  16.86
  17993.891  17993.900  0.500  0.369614  12.8846  24.1006  16.6536
  17994.772  17994.800  0.500  0.383655  12.8829  24.0908  16.4147
  17995.667  17995.700  0.500  0.405278  12.881  24.0961  16.0671
  17996.562  17996.600  0.500  0.435135  12.9203  24.1654  15.6393
  17997.486  17997.500  0.500  0.481113  12.9279  24.1748  14.9423
  17998.381  17998.400  0.500  0.542208  12.9352  24.195  14.0685
  17999.248  17999.300  0.500  0.614493  12.9176  24.1673  13.0724
  18000.186  18000.200  0.500  0.692623  12.9153  24.1557  12.0842
  18001.053  18001.100  0.500  0.749958  12.9106  24.1568  11.4114
  18002.005  18002.000  0.500  0.791622  12.9131  24.1591  10.9467
  18002.887  18002.900  0.500  0.814483  12.9032  24.1411  10.6913
  18003.768  18003.800  0.500  0.835424  12.9121  24.1539  10.4753
  18004.692  18004.700  0.500  0.865896  12.8899  24.1163  10.1451
  18005.588  18005.600  0.500  0.906659  12.8953  24.1272  9.744270
  18006.499  18006.500  0.500  0.962045  12.8946  24.1271  9.219215
  18007.395  18007.400  0.500  1.026360  12.8825  24.1008  8.635529
  18008.305  18008.300  0.500  1.101964  12.8749  24.0936  8.004319
  18009.201  18009.200  0.500  1.181383  12.885  24.1139  7.399451
  18010.098  18010.100  0.500  1.261575  12.8768  24.097  6.824448
  18011.023  18011.000  0.500  1.339624  12.8634  24.0782  6.307149
  18011.891  18011.900  0.500  1.401984  12.8664  24.0809  5.926500
  18012.844  18012.800  0.500  1.451184  12.8596  24.0665  5.638604
  18013.684  18013.700  0.500  1.478627  12.8619  24.0723  5.487294
  18014.624  18014.600  0.500  1.488732  12.8583  24.0649  5.430446
  18015.506  18015.500  0.500  1.483272  12.8521  24.0537  5.457643
  18016.432  18016.400  0.500  1.468512  12.8432  24.0393  5.535473
  18017.315  18017.300  0.500  1.451436  12.8361  24.022  5.626762
  18018.198  18018.200  0.500  1.437422  12.8439  24.0332  5.708839
  18019.123  18019.100  0.500  1.427641  12.8338  24.0191  5.761546
  18019.992  18020.000  0.500  1.422754  12.8316  24.0145  5.788669
  18020.918  18020.900  0.500  1.420718  12.8251  24.0021  5.797483
  18021.773  18021.800  0.500  1.420762  12.819  23.9943  5.795328
  18022.600  18022.600  0.500  1.421495  12.834  24.018  5.796820
  18025.578  18025.610  0.500  1.441489  12.8078  23.9733  5.671498
  18028.828  18028.800  0.500  1.494901  12.7958  23.9495  5.371177
  18032.180  18032.160  0.500  1.514568  12.7821  23.9297  5.262212
  18035.718  18035.680  0.500  1.465753  12.7761  23.9098  5.520864
  18039.386  18039.380  0.500  1.416418  12.7513  23.8717  5.790841
  18043.241  18043.250  0.500  1.408429  12.6933  23.7568  5.809176
  18047.284  18047.300  0.500  1.400192  12.7455  23.862  5.883174
  18051.529  18051.510  0.500  1.392845  12.7323  23.8341  5.919631
  18055.932  18055.890  0.500  1.416682  12.7238  23.8164  5.775900
  18060.482  18060.450  0.500  1.453354  12.697  23.771  5.557300
  18065.176  18065.180  0.500  1.448802  12.6839  23.7471  5.577043
  18070.103  18070.080  0.500  1.410150  12.6734  23.726  5.791674
  18075.161  18075.150  0.500  1.395656  12.652  23.6911  5.867592
  18080.393  18080.390  0.500  1.388987  12.6385  23.6603  5.899162
  18085.802  18085.810  0.500  1.391923  12.6213  23.6297  5.874255
  18091.414  18091.390  0.500  1.411015  12.5311  23.4632  5.722569
  18097.202  18097.150  0.500  1.419631  12.5868  23.5687  5.698975
  18103.095  18103.080  0.500  1.399572  12.5678  23.537  5.806630
  18109.179  18109.180  0.500  1.370336  12.5339  23.4715  5.962260
  18115.482  18115.450  0.500  1.367146  12.5214  23.4509  5.976067
  18121.891  18121.890  0.500  1.378982  12.4124  23.2442  5.853695
  18128.521  18128.500  0.500  1.388548  12.4909  23.396  5.835834
  18135.329  18135.290  0.500  1.392609  12.4479  23.3126  5.791467
  18142.286  18142.250  0.500  1.387696  12.4622  23.3442  5.827877
  18149.422  18149.370  0.500  1.366233  12.4248  23.2728  5.936100
  18156.752  18156.670  0.500  1.345292  12.46  23.3404  6.079322
  18164.175  18164.150  0.500  1.339312  12.4383  23.3019  6.105692
  18171.821  18171.790  0.500  1.345132  12.4141  23.2563  6.058403
  18179.647  18179.600  0.500  1.361013  12.3786  23.1901  5.945976
  18187.553  18187.590  0.500  1.371164  12.3515  23.1429  5.873942
  18195.800  18195.750  0.500  1.364662  12.3369  23.1148  5.905077
  18204.083  18204.070  0.500  1.348195  12.3135  23.0704  5.991572
  18212.593  18212.570  0.500  1.334972  12.2847  23.0172  6.057326
  18221.270  18221.250  0.500  1.323802  12.1826  22.8301  6.075577
  18230.087  18230.090  0.500  1.326360  12.2424  22.9429  6.090011
  18239.103  18239.100  0.500  1.341261  12.2056  22.8776  5.982844
  18248.317  18248.290  0.500  1.355589  12.1739  22.8174  5.882212
  18257.687  18257.650  0.500  1.349642  12.1486  22.7776  5.906991
  18267.184  18267.170  0.500  1.333995  12.1179  22.7176  5.984328
  18276.881  18276.870  0.500  1.324985  12.0864  22.6628  6.023924
  18286.794  18286.750  0.500  1.317661  11.8032  22.1311  5.925854
  18296.791  18296.790  0.500  1.313938  12.0221  22.5441  6.058941
  18306.991  18307.000  0.500  1.317253  11.9993  22.4982  6.026605
  18317.422  18317.390  0.500  1.325047  11.9632  22.4329  5.962462
  18328.013  18327.950  0.500  1.328758  11.938  22.3855  5.927808
  18338.691  18338.680  0.500  1.318965  11.8991  22.3173  5.967908
  18349.587  18349.580  0.500  1.308476  11.8554  22.2398  6.009902
  18360.689  18360.650  0.500  1.301468  11.8436  22.215  6.045411
  18371.878  18371.890  0.500  1.298228  11.8048  22.1453  6.046008
  18383.304  18383.310  0.500  1.300370  11.7616  22.0676  6.011903
  18394.981  18394.890  0.500  1.303154  11.7364  22.0216  5.982687
  18406.629  18406.650  0.500  1.302606  11.7006  21.9535  5.967455
  18418.604  18418.580  0.500  1.300100  11.6621  21.887  5.964322
  18430.714  18430.680  0.500  1.293161  11.6325  21.833  5.991009
  18442.960  18442.950  0.500  1.286957  11.5951  21.7595  6.008018
  18455.416  18455.390  0.500  1.283493  11.5559  21.6885  6.009180
  18468.084  18468.010  0.500  1.282843  11.5244  21.6326  5.997601
  18480.844  18480.790  0.500  1.283229  11.4112  21.4237  5.937376
  18493.757  18493.750  0.500  1.280850  11.4402  21.4783  5.966700
  18506.913  18506.880  0.500  1.278631  11.4056  21.4169  5.962844
  18520.224  18520.180  0.500  1.275015  11.355  21.3284  5.959730
  18533.705  18533.650  0.500  1.269337  11.3203  21.2585  5.974028
  18547.372  18547.300  0.500  1.265032  11.2817  21.1884  5.980018
  18561.210  18561.110  0.500  1.263128  11.2428  21.1108  5.969448
  18575.175  18575.100  0.500  1.262174  11.201  21.0416  5.955567
  18589.358  18589.260  0.500  1.259281  11.1648  20.9734  5.953461
  18603.791  18603.590  0.500  1.256201  11.1176  20.8868  5.947169
  18618.049  18618.090  0.500  1.252843  11.0738  20.8061  5.944132
  18632.740  18632.760  0.500  1.248934  11.0315  20.7289  5.945257
  18647.622  18647.600  0.500  1.244956  10.982  20.6399  5.943325
  18662.604  18662.620  0.500  1.241855  10.9423  20.5614  5.939121
  18677.810  18677.800  0.500  1.239337  10.8996  20.4851  5.931995
  18693.179  18693.160  0.500  1.236881  10.8528  20.4019  5.922420
  18708.711  18708.690  0.500  1.233564  10.8127  20.3268  5.920243
  18724.408  18724.390  0.500  1.230180  10.7621  20.2373  5.914131
  18740.286  18740.260  0.500  1.226367  10.7147  20.1469  5.910211
  18756.330  18756.310  0.500  1.222871  10.6696  20.0636  5.906396
  18772.525  18772.520  0.500  1.219274  10.6569  20.0398  5.920647
  18788.980  18788.910  0.500  1.216312  10.609  19.9555  5.913220
  18805.449  18805.470  0.500  1.213329  10.5648  19.874  5.906690
  18822.212  18822.200  0.500  1.210347  10.5153  19.7852  5.897833
  18839.129  18839.100  0.500  1.206605  10.4625  19.6817  5.888985
  18850.492  18850.460  0.500  1.204229  10.4337  19.6317  5.887992