File: xdidata/Yb/Yb-L1-Yb2O3.xdi
# XDI/1.0 BlueSky/1.10.0 BMM/2023-1.0-py310-tiled
# Beamline.name: BMM (06BM) -- Beamline for Materials Measurement (NIST)
# Beamline.xray_source: NSLS-II three-pole wiggler
# Beamline.collimation: paraboloid mirror, 5 nm Rh on 30 nm Pt
# Beamline.focusing: not in use
# Beamline.harmonic_rejection: flat mirror, Pt stripe, pitch = 7.0 mrad relative to beam
# Beamline.software: Bluesky 1.10.0, Ophyd 1.7.0, DataBroker 2.0.0b13, Python 3.10.8, 2023-1.0-py310-tiled
# Detector.I0: 10 cm N2
# Detector.I1: 25 cm N2
# Detector.I2: 25 cm N2
# Element.symbol: Yb
# Element.edge: L1
# Element.reference: Yb
# Element.reference_material: Yb2O3
# Facility.name: NSLS-II
# Facility.energy: 3.0
# Facility.current: 400.0
# Facility.mode: top-off
# Facility.GUP: 123456
# Facility.SAF: 301027
# Facility.cycle: 2023-2
# Mono.name: Si(111)
# Mono.d_spacing: 3.13519
# Mono.encoder_resolution: 0.0000050 deg/ct
# Mono.angle_offset: 16.0754 deg
# Mono.scan_mode: pseudo channel cut
# Mono.scan_type: step
# Mono.direction: forward in energy
# Sample.name: Yb2O3
# Sample.prep: Powder in PEG pellet
# Sample.x: 123.848 mm
# Sample.y: 114.690 mm
# Sample.SDD_position: 205.000 mm
# Scan.experimenters: Bruce Ravel
# Scan.edge_energy: 10486.4
# Scan.start_time: 2023-05-08T23:02:42
# Scan.end_time: 2023-05-08T23:08:25
# Scan.transient_id: 75704
# Scan.uid: 7d4fd6a0-b4e3-4cc4-8bda-f879bc89a5d4
# Scan.plot_hint: ln(I0/It)  --  ln($5/$6)
# Column.1: energy eV
# Column.2: requested_energy eV
# Column.3: measurement_time seconds
# Column.4: xmu
# Column.5: I0 nA
# Column.6: It nA
# Column.7: Ir nA
# ///////////
# sample courtesy Martin Stennett, University of Sheffield
# -----------
# energy  requested_energy  measurement_time  xmu  I0  It  Ir
  10286.447  10286.400  0.500  2.938880  90.4156  4.785243  1.198306
  10306.491  10306.400  0.500  2.928648  90.023  4.813465  1.211405
  10326.434  10326.400  0.500  2.910594  89.6302  4.879773  1.237159
  10346.428  10346.400  0.500  2.897231  89.2264  4.923140  1.255200
  10366.441  10366.400  0.500  2.882209  88.8273  4.975299  1.277137
  10386.430  10386.400  0.500  2.868122  87.8551  4.990655  1.287193
  10406.418  10406.400  0.500  2.851754  87.4412  5.049115  1.311348
  10426.418  10426.400  0.500  2.835511  87.0331  5.107843  1.335263
  10446.435  10446.400  0.500  2.823397  86.6265  5.145941  1.351961
  10458.386  10458.400  0.500  2.820342  86.3815  5.147093  1.355541
  10462.374  10462.400  0.500  2.819391  86.2858  5.146279  1.356249
  10466.365  10466.400  0.500  2.817931  86.1959  5.148429  1.357431
  10470.374  10470.400  0.500  2.816602  86.1038  5.149766  1.358943
  10474.361  10474.400  0.500  2.815930  86.0124  5.147758  1.359134
  10476.863  10476.900  0.500  2.816419  85.9584  5.142012  1.358805
  10477.862  10477.900  0.500  2.816719  85.9557  5.140307  1.357590
  10478.857  10478.900  0.500  2.817093  85.9081  5.135543  1.356649
  10479.875  10479.900  0.500  2.817922  85.8992  5.130750  1.354763
  10480.870  10480.900  0.500  2.818837  85.8614  5.123804  1.352829
  10481.870  10481.900  0.500  2.819713  85.8365  5.117831  1.351032
  10482.866  10482.900  0.500  2.821059  85.7999  5.108769  1.348300
  10483.871  10483.900  0.500  2.823199  85.796  5.097617  1.344795
  10484.881  10484.900  0.500  2.825751  85.7783  5.083578  1.339619
  10485.891  10485.900  0.500  2.829412  85.7276  5.062006  1.332789
  10486.887  10486.900  0.500  2.834635  85.7313  5.035853  1.324525
  10487.888  10487.900  0.500  2.842392  85.698  4.995001  1.310948
  10488.889  10488.900  0.500  2.853448  85.6836  4.939251  1.291613
  10489.872  10489.900  0.500  2.868384  85.6612  4.864755  1.266739
  10490.883  10490.900  0.500  2.886680  85.63  4.774816  1.236986
  10491.885  10491.900  0.500  2.905115  85.6074  4.686365  1.207199
  10492.901  10492.900  0.500  2.922751  85.8934  4.619822  1.184466
  10493.894  10493.900  0.500  2.940022  85.8751  4.539750  1.158505
  10494.901  10494.900  0.500  2.957503  85.8477  4.459660  1.131937
  10495.894  10495.900  0.500  2.976532  85.8146  4.373909  1.104315
  10496.887  10496.900  0.500  2.996641  85.7945  4.285832  1.075040
  10497.895  10497.900  0.500  3.017870  85.7815  4.195165  1.046033
  10498.894  10498.900  0.500  3.041696  85.7526  4.095013  1.014492
  10499.911  10499.900  0.500  3.068977  85.7452  3.984465  0.979616
  10500.906  10500.900  0.500  3.099896  85.7156  3.861820  0.940144
  10501.909  10501.900  0.500  3.133519  85.713  3.734023  0.900627
  10502.894  10502.900  0.500  3.162062  85.666  3.626954  0.867647
  10503.884  10503.900  0.500  3.180284  85.6511  3.560845  0.846753
  10504.898  10504.900  0.500  3.185118  85.6305  3.542819  0.841647
  10505.888  10505.900  0.500  3.179930  85.6041  3.560151  0.846889
  10506.912  10506.900  0.500  3.171024  85.5837  3.591142  0.857295
  10507.903  10507.900  0.500  3.163198  85.5614  3.618413  0.865180
  10508.908  10508.900  0.500  3.160017  85.5505  3.629482  0.869071
  10509.894  10509.900  0.500  3.161314  85.4982  3.622560  0.866930
  10510.905  10510.900  0.500  3.164017  85.4025  3.608740  0.863171
  10512.394  10512.390  0.500  3.166856  85.4346  3.599861  0.860795
  10514.435  10514.410  0.500  3.163410  85.4001  3.610830  0.863468
  10516.525  10516.520  0.500  3.151432  85.384  3.653652  0.877169
  10518.702  10518.700  0.500  3.130509  85.3209  3.728144  0.901289
  10520.976  10520.960  0.500  3.107798  85.2797  3.811942  0.927994
  10523.303  10523.290  0.500  3.086265  85.2142  3.891922  0.953476
  10525.714  10525.700  0.500  3.067291  85.0091  3.956925  0.975131
  10528.197  10528.180  0.500  3.055232  85.1308  4.010666  0.991981
  10530.744  10530.740  0.500  3.050479  85.0727  4.027026  0.997336
  10533.380  10533.380  0.500  3.049899  85.024  4.027050  0.997960
  10536.112  10536.100  0.500  3.052659  84.9511  4.012508  0.993479
  10538.894  10538.890  0.500  3.057077  84.8254  3.988912  0.986654
  10541.774  10541.750  0.500  3.061430  84.8302  3.971810  0.981311
  10544.690  10544.690  0.500  3.066046  84.7682  3.950628  0.975393
  10547.728  10547.710  0.500  3.072630  84.6985  3.921475  0.966292
  10550.825  10550.810  0.500  3.080578  84.6342  3.887474  0.956287
  10553.992  10553.980  0.500  3.088700  84.5183  3.850752  0.945027
  10557.228  10557.230  0.500  3.097083  84.2898  3.808283  0.932817
  10560.558  10560.550  0.500  3.100998  84.4343  3.799900  0.930186
  10563.973  10563.950  0.500  3.098711  84.3736  3.805866  0.932000
  10567.438  10567.430  0.500  3.090676  84.297  3.833088  0.941698
  10570.983  10570.980  0.500  3.076206  84.2139  3.885120  0.958393
  10574.623  10574.610  0.500  3.060700  84.1364  3.942200  0.977309
  10578.314  10578.310  0.500  3.050376  84.0603  3.979513  0.989878
  10582.104  10582.090  0.500  3.045803  83.9755  3.993714  0.995468
  10585.956  10585.950  0.500  3.043807  83.6914  3.988156  0.994720
  10589.893  10589.880  0.500  3.043104  83.8285  3.997499  0.996999
  10593.891  10593.890  0.500  3.040059  83.7359  4.005261  1.000737
  10598.010  10597.980  0.500  3.034001  83.5511  4.020709  1.006363
  10602.156  10602.140  0.500  3.028405  83.5627  4.043833  1.014417
  10606.398  10606.380  0.500  3.023013  83.4821  4.061772  1.020878
  10610.707  10610.690  0.500  3.018885  83.2817  4.068782  1.024260
  10615.097  10615.080  0.500  3.016321  83.327  4.081450  1.028400
  10619.575  10619.550  0.500  3.017554  83.0345  4.062108  1.023952
  10624.100  10624.090  0.500  3.020300  83.1281  4.055536  1.021818
  10628.713  10628.710  0.500  3.024449  83.0197  4.033479  1.014898
  10633.408  10633.400  0.500  3.026001  82.949  4.023796  1.013081
  10638.181  10638.170  0.500  3.021486  82.8239  4.035903  1.017688
  10643.042  10643.020  0.500  3.016580  82.442  4.037051  1.019521
  10647.966  10647.950  0.500  3.012010  82.6675  4.066639  1.028586
  10652.969  10652.950  0.500  3.004490  82.5406  4.091047  1.037960
  10658.036  10658.020  0.500  2.993418  82.4289  4.130994  1.051867
  10663.191  10663.170  0.500  2.982360  82.3376  4.172300  1.066520
  10668.411  10668.400  0.500  2.974431  82.2173  4.199371  1.076111
  10673.725  10673.710  0.500  2.972583  82.1165  4.201982  1.078216
  10679.114  10679.090  0.500  2.971389  81.8697  4.194355  1.076537
  10684.572  10684.550  0.500  2.969631  81.9  4.203292  1.079992
  10690.091  10690.080  0.500  2.965330  81.7752  4.214977  1.084925
  10695.714  10695.690  0.500  2.960708  81.6195  4.226443  1.090297
  10701.399  10701.370  0.500  2.955463  81.5465  4.244867  1.096735
  10707.154  10707.140  0.500  2.949423  81.3624  4.260943  1.103203
  10712.980  10712.970  0.500  2.944302  81.2779  4.278371  1.109482
  10718.912  10718.890  0.500  2.941290  81.1696  4.285557  1.113263
  10724.911  10724.880  0.500  2.940093  81.0192  4.282741  1.113757
  10730.972  10730.950  0.500  2.939015  80.8937  4.280720  1.114336
  10737.110  10737.090  0.500  2.935847  80.7314  4.285688  1.116884
  10743.345  10743.310  0.500  2.930248  80.5821  4.301781  1.123666
  10749.632  10749.600  0.500  2.923926  80.4548  4.322220  1.131196
  10755.997  10755.970  0.500  2.917349  80.2885  4.341749  1.138941
  10762.440  10762.420  0.500  2.910005  80.141  4.365720  1.148997
  10768.987  10768.950  0.500  2.903282  79.9816  4.386428  1.157679
  10775.582  10775.550  0.500  2.896395  79.8505  4.409501  1.165943
  10782.251  10782.220  0.500  2.890145  79.6721  4.427235  1.173679
  10788.989  10788.970  0.500  2.884932  79.495  4.440477  1.179894
  10795.786  10795.800  0.500  2.881908  79.3218  4.444222  1.182041
  10802.733  10802.710  0.500  2.877887  79.1647  4.453292  1.186797
  10809.720  10809.690  0.500  2.873143  79.0377  4.467295  1.192877
  10816.798  10816.750  0.500  2.867958  78.8498  4.479839  1.198842
  10823.920  10823.880  0.500  2.862274  78.6906  4.496281  1.205977
  10831.118  10831.090  0.500  2.857013  78.4812  4.507968  1.211412
  10838.413  10838.380  0.500  2.852097  78.6739  4.541305  1.222410
  10845.774  10845.740  0.500  2.846368  78.4596  4.554956  1.228791
  10853.221  10853.180  0.500  2.840602  78.1776  4.564830  1.234526
  10860.715  10860.690  0.500  2.833760  77.9885  4.585049  1.243406
  10868.296  10868.280  0.500  2.828396  77.8256  4.600084  1.249825
  10875.971  10875.950  0.500  2.823210  77.6629  4.614336  1.256978
  10883.718  10883.690  0.500  2.816776  77.6475  4.643199  1.267094
  10891.548  10891.510  0.500  2.810377  77.4679  4.662197  1.275837
  10899.436  10899.410  0.500  2.803649  77.3068  4.683911  1.285188
  10907.408  10907.380  0.500  2.796601  77.1246  4.705921  1.293954
  10915.459  10915.430  0.500  2.790204  76.894  4.721958  1.301423
  10923.579  10923.550  0.500  2.784384  76.7531  4.740819  1.310265
  10931.769  10931.750  0.500  2.778788  76.578  4.756546  1.317634
  10940.059  10940.030  0.500  2.772879  76.3754  4.772075  1.325021
  10948.419  10948.380  0.500  2.767994  76.1969  4.784240  1.330650
  10956.834  10956.810  0.500  2.763354  76.0224  4.795482  1.337002
  10965.341  10965.310  0.500  2.757229  75.8376  4.813218  1.345529
  10973.923  10973.890  0.500  2.750339  75.6507  4.834551  1.355169
  10982.577  10982.550  0.500  2.742356  75.437  4.859528  1.365372
  10991.324  10991.290  0.500  2.735501  75.2628  4.881662  1.376704
  11000.127  11000.100  0.500  2.728150  75.067  4.904882  1.386130
  11009.002  11008.980  0.500  2.721754  74.8551  4.922421  1.394546
  11017.960  11017.940  0.500  2.715266  74.6678  4.942063  1.403896
  11026.996  11026.980  0.500  2.709045  74.4529  4.958595  1.412143
  11031.559  11031.530  0.500  2.706070  74.3714  4.967918  1.416118