File: xdidata/Yb/Yb-L3-Yb2O3.xdi
# XDI/1.0 BlueSky/1.10.0 BMM/2023-1.0-py310-tiled
# Beamline.name: BMM (06BM) -- Beamline for Materials Measurement (NIST)
# Beamline.xray_source: NSLS-II three-pole wiggler
# Beamline.collimation: paraboloid mirror, 5 nm Rh on 30 nm Pt
# Beamline.focusing: not in use
# Beamline.harmonic_rejection: flat mirror, Pt stripe, pitch = 7.0 mrad relative to beam
# Beamline.software: Bluesky 1.10.0, Ophyd 1.7.0, DataBroker 2.0.0b13, Python 3.10.8, 2023-1.0-py310-tiled
# Detector.I0: 10 cm N2
# Detector.I1: 25 cm N2
# Detector.I2: 25 cm N2
# Element.symbol: Yb
# Element.edge: L3
# Element.reference: Yb
# Element.reference_material: Yb2O3
# Facility.name: NSLS-II
# Facility.energy: 3.0
# Facility.current: 399.9
# Facility.mode: top-off
# Facility.GUP: 123456
# Facility.SAF: 301027
# Facility.cycle: 2023-2
# Mono.name: Si(111)
# Mono.d_spacing: 3.13519
# Mono.encoder_resolution: 0.0000050 deg/ct
# Mono.angle_offset: 16.0754 deg
# Mono.scan_mode: pseudo channel cut
# Mono.scan_type: step
# Mono.direction: forward in energy
# Sample.name: Yb2O3
# Sample.prep: Powder in PEG pellet
# Sample.x: 123.848 mm
# Sample.y: 114.690 mm
# Sample.SDD_position: 205.000 mm
# Scan.experimenters: Bruce Ravel
# Scan.edge_energy: 8943.6
# Scan.start_time: 2023-05-08T19:30:12
# Scan.end_time: 2023-05-08T19:36:10
# Scan.transient_id: 75540
# Scan.uid: 9a8a0b37-28a1-4a4d-80b0-afc65dfed344
# Scan.plot_hint: ln(I0/It)  --  ln($5/$6)
# Column.1: energy eV
# Column.2: requested_energy eV
# Column.3: measurement_time seconds
# Column.4: xmu
# Column.5: I0 nA
# Column.6: It nA
# Column.7: Ir nA
# ///////////
# sample courtesy Martin Stennett, University of Sheffield
# -----------
# energy  requested_energy  measurement_time  xmu  I0  It  Ir
  8743.639  8743.600  0.500  1.962922  123.396  17.3307  4.684843
  8763.679  8763.600  0.500  1.945996  123.003  17.5704  4.790943
  8783.632  8783.600  0.500  1.929414  122.587  17.8037  4.894371
  8803.657  8803.600  0.500  1.912800  122.162  18.0393  5.002035
  8823.629  8823.600  0.500  1.896082  121.761  18.2831  5.110054
  8843.665  8843.600  0.500  1.880101  121.282  18.5046  5.213994
  8863.570  8863.600  0.500  1.864985  120.894  18.7262  5.317907
  8883.582  8883.600  0.500  1.851729  120.473  18.9101  5.411026
  8903.574  8903.600  0.500  1.844339  120.027  18.9799  5.460496
  8915.577  8915.600  0.500  1.849897  119.68  18.8201  5.419589
  8919.568  8919.600  0.500  1.856010  119.754  18.7169  5.383002
  8923.579  8923.600  0.500  1.867250  117.553  18.1675  5.212896
  8927.570  8927.600  0.500  1.887267  119.853  18.156  5.182615
  8931.578  8931.600  0.500  1.925961  118.304  17.2411  4.872649
  8934.065  8934.100  0.500  1.975255  119.786  16.6174  4.634520
  8935.075  8935.100  0.500  2.005949  119.656  16.0976  4.453686
  8936.078  8936.100  0.500  2.040598  119.398  15.5158  4.251881
  8937.079  8937.100  0.500  2.074775  119.612  15.0215  4.077558
  8938.076  8938.100  0.500  2.112222  119.649  14.4738  3.888280
  8939.076  8939.100  0.500  2.164880  119.627  13.7288  3.635130
  8940.081  8940.100  0.500  2.242834  119.603  12.6967  3.290625
  8941.082  8941.100  0.500  2.360168  119.577  11.2886  2.832119
  8942.087  8942.100  0.500  2.530202  119.551  9.521418  2.279289
  8943.085  8943.100  0.500  2.781070  119.53  7.407543  1.655261
  8944.083  8944.100  0.500  3.166095  119.499  5.039032  1.013198
  8945.082  8945.100  0.500  3.731300  119.477  2.862872  0.493327
  8946.091  8946.100  0.500  4.451940  119.455  1.392357  0.195679
  8947.094  8947.100  0.500  5.159924  119.42  0.685727  0.077473
  8948.097  8948.100  0.500  5.567398  119.404  0.456174  0.045118
  8949.100  8949.100  0.500  5.737834  119.374  0.384591  0.035951
  8950.092  8950.100  0.500  5.767665  119.343  0.373191  0.034543
  8951.089  8951.100  0.500  5.545840  119.257  0.465538  0.046372
  8952.093  8952.100  0.500  5.075500  118.972  0.743332  0.085744
  8953.104  8953.100  0.500  4.552603  119.17  1.256016  0.169453
  8954.104  8954.100  0.500  4.114523  119.208  1.947118  0.297496
  8955.102  8955.100  0.500  3.806508  119.183  2.648922  0.441259
  8956.093  8956.100  0.500  3.611702  119.16  3.218009  0.566820
  8957.101  8957.100  0.500  3.476612  119.137  3.682744  0.674034
  8958.103  8958.100  0.500  3.377008  119.122  4.067951  0.765977
  8959.097  8959.100  0.500  3.308013  119.095  4.357541  0.837210
  8960.103  8960.100  0.500  3.261316  119.08  4.565263  0.888362
  8961.095  8961.100  0.500  3.229597  119.052  4.711291  0.925089
  8962.094  8962.100  0.500  3.212926  119.01  4.788824  0.945158
  8963.093  8963.100  0.500  3.213888  118.983  4.783114  0.944003
  8964.100  8964.100  0.500  3.229895  118.941  4.705505  0.924329
  8965.103  8965.100  0.500  3.250746  118.673  4.598029  0.898220
  8966.100  8966.100  0.500  3.264701  118.74  4.536875  0.882910
  8967.093  8967.100  0.500  3.268824  118.865  4.522960  0.878810
  8968.100  8968.100  0.500  3.263756  118.846  4.545190  0.885704
  8969.600  8969.590  0.500  3.239486  118.816  4.655675  0.913474
  8971.619  8971.610  0.500  3.202636  118.764  4.828328  0.957447
  8973.727  8973.720  0.500  3.203439  118.713  4.822393  0.956286
  8975.915  8975.900  0.500  3.260610  118.655  4.552198  0.888284
  8978.163  8978.160  0.500  3.337504  118.599  4.213288  0.804225
  8980.506  8980.490  0.500  3.424611  118.534  3.859709  0.718604
  8982.899  8982.900  0.500  3.528414  118.282  3.471752  0.627511
  8985.387  8985.380  0.500  3.606289  118.367  3.213952  0.568042
  8987.949  8987.940  0.500  3.607290  118.298  3.208860  0.567227
  8990.590  8990.580  0.500  3.543202  118.2  3.418419  0.615922
  8993.312  8993.300  0.500  3.462629  117.418  3.680741  0.679971
  8996.102  8996.090  0.500  3.397676  118.135  3.951714  0.743574
  8998.957  8998.950  0.500  3.357932  118.024  4.108089  0.782689
  9001.908  9001.890  0.500  3.321346  117.706  4.249674  0.818300
  9004.920  9004.910  0.500  3.292224  117.911  4.382899  0.851875
  9008.028  9008.010  0.500  3.274631  117.805  4.456649  0.870887
  9011.184  9011.180  0.500  3.261757  115.75  4.435670  0.870146
  9014.441  9014.430  0.500  3.257601  117.74  4.530706  0.890130
  9017.762  9017.750  0.500  3.263291  117.605  4.499851  0.883570
  9021.157  9021.150  0.500  3.279355  116.006  4.367928  0.853306
  9024.631  9024.630  0.500  3.307239  117.55  4.304341  0.835099
  9028.196  9028.180  0.500  3.336220  117.454  4.177962  0.804372
  9031.826  9031.810  0.500  3.357798  117.359  4.085492  0.781902
  9035.527  9035.510  0.500  3.367412  117.273  4.043420  0.772432
  9039.312  9039.290  0.500  3.367277  117.159  4.040035  0.772410
  9043.163  9043.150  0.500  3.363650  116.931  4.046823  0.774978
  9047.088  9047.080  0.500  3.363003  116.944  4.049900  0.775652
  9051.108  9051.090  0.500  3.359219  116.857  4.062224  0.779579
  9055.192  9055.180  0.500  3.349763  116.761  4.097461  0.789059
  9059.347  9059.340  0.500  3.342316  116.667  4.124773  0.796422
  9063.591  9063.580  0.500  3.336599  115.312  4.100224  0.793821
  9067.907  9067.890  0.500  3.327430  116.445  4.178660  0.811368
  9072.300  9072.280  0.500  3.305623  116.356  4.267521  0.834613
  9076.766  9076.750  0.500  3.277038  116.253  4.387386  0.865560
  9081.311  9081.290  0.500  3.250154  114.93  4.455623  0.886589
  9085.924  9085.910  0.500  3.240007  116.003  4.543097  0.907294
  9090.599  9090.600  0.500  3.252206  115.901  4.484072  0.892904
  9095.372  9095.370  0.500  3.265861  115.791  4.419040  0.877178
  9100.236  9100.220  0.500  3.275081  115.686  4.374527  0.866874
  9105.165  9105.150  0.500  3.286247  115.31  4.311890  0.852220
  9110.176  9110.150  0.500  3.304582  115.423  4.237696  0.833858
  9115.245  9115.220  0.500  3.315675  115.298  4.186435  0.822126
  9120.392  9120.370  0.500  3.306334  115.175  4.221208  0.831444
  9125.617  9125.600  0.500  3.277845  115.055  4.338669  0.862382
  9130.937  9130.910  0.500  3.253812  114.907  4.438484  0.889215
  9136.311  9136.290  0.500  3.241492  114.753  4.487464  0.903250
  9141.774  9141.750  0.500  3.239609  114.463  4.484588  0.903428
  9147.302  9147.280  0.500  3.242768  114.586  4.475211  0.901837
  9152.905  9152.890  0.500  3.245626  114.344  4.453023  0.896936
  9158.591  9158.570  0.500  3.246914  113.677  4.421341  0.891032
  9164.374  9164.340  0.500  3.244090  114.102  4.450427  0.898850
  9170.191  9170.170  0.500  3.227958  114.109  4.523076  0.917748
  9176.123  9176.090  0.500  3.209501  114.362  4.617585  0.942745
  9182.119  9182.080  0.500  3.197868  110.319  4.506459  0.924878
  9188.155  9188.150  0.500  3.195140  114.145  4.675463  0.961197
  9194.297  9194.290  0.500  3.197274  113.936  4.656973  0.957046
  9200.521  9200.510  0.500  3.200879  113.732  4.631897  0.951967
  9206.819  9206.800  0.500  3.202029  113.571  4.620038  0.949856
  9213.192  9213.170  0.500  3.202343  113.426  4.612681  0.949145
  9219.637  9219.620  0.500  3.197416  113.269  4.629042  0.955225
  9226.175  9226.150  0.500  3.189748  113.109  4.658101  0.964083
  9232.766  9232.750  0.500  3.180521  112.939  4.694212  0.975180
  9239.441  9239.420  0.500  3.167831  112.769  4.746993  0.990378
  9246.185  9246.170  0.500  3.153425  112.607  4.808970  1.008562
  9253.023  9253.000  0.500  3.145132  112.439  4.841767  1.019103
  9259.932  9259.910  0.500  3.141040  112.257  4.853738  1.023447
  9266.913  9266.890  0.500  3.139646  112.083  4.852995  1.025018
  9273.973  9273.950  0.500  3.135372  111.885  4.865146  1.029705
  9281.106  9281.080  0.500  3.126439  111.769  4.903707  1.041874
  9288.303  9288.290  0.500  3.116253  111.555  4.944453  1.055006
  9295.589  9295.580  0.500  3.108482  111.352  4.973967  1.064066
  9302.947  9302.940  0.500  3.102786  111.268  4.998576  1.072234
  9310.396  9310.380  0.500  3.098063  111.084  5.013964  1.078474
  9317.916  9317.890  0.500  3.090224  110.891  5.044633  1.088608
  9325.490  9325.480  0.500  3.082264  110.728  5.077483  1.099381
  9333.175  9333.150  0.500  3.077683  110.525  5.091441  1.105020
  9340.910  9340.890  0.500  3.073738  110.322  5.102153  1.109741
  9348.729  9348.710  0.500  3.068230  110.122  5.121048  1.117228
  9356.619  9356.610  0.500  3.060705  109.929  5.150678  1.126844
  9364.595  9364.580  0.500  3.051904  109.73  5.186816  1.139541
  9372.645  9372.630  0.500  3.042052  109.517  5.228008  1.152768
  9380.773  9380.750  0.500  3.032009  109.317  5.271109  1.167195
  9388.974  9388.950  0.500  3.021354  109.111  5.317528  1.182065
  9397.249  9397.230  0.500  3.010144  108.92  5.368080  1.199182
  9405.594  9405.580  0.500  3.001699  108.718  5.403558  1.210868
  9414.037  9414.010  0.500  2.997730  108.507  5.414512  1.216397
  9422.523  9422.510  0.500  2.995116  108.292  5.417951  1.219464
  9431.105  9431.090  0.500  2.989934  108.088  5.435848  1.226718
  9439.768  9439.750  0.500  2.980502  107.866  5.476062  1.240235
  9448.510  9448.490  0.500  2.970783  107.668  5.519392  1.255237
  9457.326  9457.300  0.500  2.960188  107.454  5.567090  1.270974
  9466.205  9466.180  0.500  2.950502  107.234  5.609786  1.286499
  9475.155  9475.140  0.500  2.940567  107.008  5.653867  1.302071
  9484.197  9484.180  0.500  2.929794  106.783  5.703083  1.318431
  9488.757  9488.730  0.500  2.925397  106.672  5.722242  1.325640