File: xdidata/Data/Lu/Lu-L1-LutetiumOxide.xdi
# XDI/1.0 BlueSky/1.10.0 BMM/2023-1.0-py310-tiled
# Beamline.name: BMM (06BM) -- Beamline for Materials Measurement (NIST)
# Beamline.xray_source: NSLS-II three-pole wiggler
# Beamline.collimation: paraboloid mirror, 5 nm Rh on 30 nm Pt
# Beamline.focusing: not in use
# Beamline.harmonic_rejection: flat mirror, Pt stripe, pitch = 7.0 mrad relative to beam
# Beamline.software: Bluesky 1.10.0, Ophyd 1.7.0, DataBroker 2.0.0b13, Python 3.10.8, 2023-1.0-py310-tiled
# Detector.I0: 10 cm N2
# Detector.I1: 25 cm N2
# Detector.I2: 25 cm N2
# Element.symbol: Lu
# Element.edge: L1
# Element.reference: Lu
# Element.reference_material: Lu2O3
# Facility.name: NSLS-II
# Facility.energy: 3.0
# Facility.current: 400.1
# Facility.mode: top-off
# Facility.GUP: 301027
# Facility.SAF: 310583
# Facility.cycle: 2023-2
# Mono.name: Si(111)
# Mono.d_spacing: 3.13519
# Mono.encoder_resolution: 0.0000050 deg/ct
# Mono.angle_offset: 16.0754 deg
# Mono.scan_mode: pseudo channel cut
# Mono.scan_type: step
# Mono.direction: forward in energy
# Sample.name: Lu2O3
# Sample.prep: PEG pellet
# Sample.x: 109.138 mm
# Sample.y: 153.150 mm
# Sample.SDD_position: 205.000 mm
# Scan.experimenters: Bruce Ravel
# Scan.edge_energy: 10870.4
# Scan.start_time: 2023-05-28T18:25:21
# Scan.end_time: 2023-05-28T18:33:05
# Scan.transient_id: 78910
# Scan.uid: d0d62fac-d52a-40db-b25b-639b955d80d8
# Scan.plot_hint: ln(It/Ir)  --  ln($6/$7)
# Column.1: energy eV
# Column.2: requested_energy eV
# Column.3: measurement_time seconds
# Column.4: xmu
# Column.5: I0 nA
# Column.6: It nA
# Column.7: Ir nA
# ///////////
# sample courtesy Martin Stennett, University of Sheffield
# -----------
# energy  requested_energy  measurement_time  xmu  I0  It  Ir
  10670.415  10670.400  0.500  1.909557  84.5679  135.337  20.0496
  10700.485  10700.400  0.500  1.898432  84.062  134.745  20.1853
  10730.393  10730.400  0.500  1.888271  83.4795  134.052  20.2866
  10760.411  10760.400  0.500  1.879552  82.9375  133.381  20.3617
  10790.423  10790.400  0.500  1.867606  82.3921  132.73  20.5059
  10820.434  10820.400  0.500  1.856766  81.8812  132.117  20.6336
  10842.380  10842.400  0.500  1.853151  81.4929  131.649  20.6351
  10848.368  10848.400  0.500  1.851801  81.1047  131.055  20.5697
  10854.372  10854.400  0.500  1.851156  81.0153  130.948  20.5662
  10860.372  10860.400  0.500  1.851193  80.9397  130.873  20.5536
  10861.253  10861.300  0.500  1.851095  80.8134  130.665  20.5228
  10862.164  10862.200  0.500  1.851346  81.0044  130.989  20.5687
  10863.065  10863.100  0.500  1.851707  81.0681  131.098  20.5783
  10863.962  10864.000  0.500  1.852157  81.0474  131.074  20.5653
  10864.873  10864.900  0.500  1.852646  81.0249  131.038  20.5496
  10865.765  10865.800  0.500  1.853228  80.9926  130.993  20.5306
  10866.677  10866.700  0.500  1.854011  80.9692  130.971  20.511
  10867.569  10867.600  0.500  1.855159  80.8656  130.8  20.4608
  10868.476  10868.500  0.500  1.856480  80.6142  130.399  20.371
  10869.378  10869.400  0.500  1.858385  81.0448  131.098  20.4414
  10870.296  10870.300  0.500  1.860989  81.162  131.305  20.4204
  10871.194  10871.200  0.500  1.864766  81.1477  131.293  20.3416
  10872.101  10872.100  0.500  1.870180  81.1322  131.274  20.2289
  10872.994  10873.000  0.500  1.877451  81.0996  131.209  20.0723
  10873.902  10873.900  0.500  1.886087  81.0759  131.184  19.896
  10874.795  10874.800  0.500  1.894197  81.0516  131.148  19.7298
  10875.699  10875.700  0.500  1.901511  80.9524  131.007  19.565
  10876.587  10876.600  0.500  1.908655  80.8777  130.883  19.4072
  10877.490  10877.500  0.500  1.916337  80.8885  130.92  19.2642
  10878.384  10878.400  0.500  1.924608  80.938  130.984  19.1149
  10879.303  10879.300  0.500  1.933149  80.9334  130.989  18.953
  10880.202  10880.200  0.500  1.941740  80.9074  130.955  18.786
  10881.117  10881.100  0.500  1.950831  80.8944  130.935  18.6132
  10882.011  10882.000  0.500  1.960823  80.8755  130.92  18.426
  10882.916  10882.900  0.500  1.973332  80.8605  130.894  18.1933
  10883.805  10883.800  0.500  1.987836  80.8292  130.845  17.9247
  10884.715  10884.700  0.500  2.003136  80.8056  130.818  17.6488
  10885.599  10885.600  0.500  2.016410  80.7784  130.784  17.4116
  10886.505  10886.500  0.500  2.025666  80.7611  130.764  17.2486
  10887.389  10887.400  0.500  2.029332  80.7408  130.734  17.1814
  10888.300  10888.300  0.500  2.028433  80.7318  130.726  17.1959
  10889.206  10889.200  0.500  2.024485  80.7025  130.688  17.2589
  10890.117  10890.100  0.500  2.020010  80.6954  130.676  17.3347
  10891.002  10891.000  0.500  2.017025  80.6665  130.645  17.3824
  10891.918  10891.900  0.500  2.015678  80.6478  130.613  17.4016
  10892.799  10892.800  0.500  2.016296  80.6208  130.581  17.3865
  10893.711  10893.700  0.500  2.017498  80.5989  130.547  17.3612
  10894.591  10894.600  0.500  2.018721  80.5787  130.531  17.3378
  10895.395  10895.400  0.500  2.019083  80.557  130.487  17.3256
  10898.410  10898.410  0.500  2.014403  80.507  130.437  17.4004
  10901.622  10901.600  0.500  2.000301  80.4409  130.342  17.6345
  10904.971  10904.960  0.500  1.984929  80.3765  130.258  17.8961
  10908.477  10908.480  0.500  1.971667  80.3131  130.178  18.124
  10912.197  10912.180  0.500  1.963341  80.2367  130.086  18.2627
  10916.064  10916.050  0.500  1.962019  80.1385  129.944  18.2668
  10920.115  10920.100  0.500  1.964263  80.0968  129.91  18.221
  10924.309  10924.310  0.500  1.966901  80.0231  129.817  18.16
  10928.704  10928.690  0.500  1.969984  79.9405  129.717  18.0903
  10933.263  10933.250  0.500  1.975583  79.8493  129.599  17.9729
  10937.981  10937.980  0.500  1.981301  79.7738  129.506  17.8576
  10942.896  10942.880  0.500  1.985694  79.6824  129.388  17.763
  10947.967  10947.950  0.500  1.983545  79.5897  129.271  17.7853
  10953.203  10953.190  0.500  1.975432  79.4838  129.138  17.9116
  10958.638  10958.610  0.500  1.964525  79.3798  129.002  18.089
  10964.187  10964.190  0.500  1.959386  79.2795  128.88  18.165
  10969.973  10969.950  0.500  1.958397  79.1814  128.753  18.165
  10975.900  10975.880  0.500  1.957324  79.0688  128.59  18.1615
  10981.996  10981.980  0.500  1.953547  78.9563  128.458  18.2115
  10988.257  10988.250  0.500  1.949888  78.8638  128.355  18.2637
  10994.713  10994.690  0.500  1.947532  78.735  128.185  18.2824
  11001.319  11001.300  0.500  1.946896  78.618  128.033  18.2723
  11008.107  11008.090  0.500  1.948291  78.5045  127.895  18.2273
  11015.035  11015.050  0.500  1.950896  78.3062  127.613  18.1397
  11022.167  11022.170  0.500  1.948289  78.2606  127.592  18.1841
  11029.473  11029.470  0.500  1.944571  78.384  127.825  18.2852
  11036.957  11036.950  0.500  1.939543  78.2619  127.685  18.3572
  11044.616  11044.590  0.500  1.931590  78.1273  127.497  18.4766
  11052.413  11052.400  0.500  1.925511  77.9762  127.312  18.5622
  11060.412  11060.390  0.500  1.924815  77.7634  127.013  18.5316
  11068.578  11068.550  0.500  1.923808  77.6879  126.939  18.5394
  11076.883  11076.870  0.500  1.920921  77.4636  126.621  18.5465
  11085.378  11085.370  0.500  1.917386  77.3838  126.546  18.601
  11094.051  11094.050  0.500  1.913337  77.2221  126.332  18.645
  11102.888  11102.890  0.500  1.910710  77.0624  126.124  18.6633
  11111.905  11111.900  0.500  1.909703  76.8325  125.795  18.6333
  11121.115  11121.090  0.500  1.907546  76.7265  125.673  18.6555
  11130.464  11130.450  0.500  1.903184  76.5671  125.485  18.709
  11139.980  11139.970  0.500  1.898781  76.3926  125.249  18.7561
  11149.675  11149.670  0.500  1.893879  76.2186  125.029  18.8153
  11159.586  11159.550  0.500  1.889164  76.0503  124.807  18.8706
  11169.603  11169.590  0.500  1.884692  75.8672  124.565  18.9184
  11179.817  11179.800  0.500  1.882201  75.6759  124.312  18.9271
  11190.202  11190.190  0.500  1.879588  75.4907  124.055  18.9374
  11200.770  11200.750  0.500  1.875986  75.285  123.78  18.9635
  11211.506  11211.480  0.500  1.871929  75.0871  123.519  19.0004
  11222.411  11222.380  0.500  1.868236  74.8785  123.233  19.0266
  11233.474  11233.450  0.500  1.864038  74.6576  122.93  19.0597
  11244.708  11244.690  0.500  1.859416  74.5797  122.871  19.1388
  11256.152  11256.110  0.500  1.855690  74.3083  122.485  19.1499
  11267.707  11267.690  0.500  1.851647  74.0715  122.169  19.178
  11279.464  11279.450  0.500  1.847080  73.8451  121.84  19.2138
  11291.396  11291.380  0.500  1.842307  73.5889  121.485  19.2494
  11303.514  11303.480  0.500  1.837786  73.4275  121.29  19.3057
  11315.786  11315.750  0.500  1.833473  73.0971  120.812  19.3128
  11328.236  11328.190  0.500  1.829602  72.6974  120.218  19.2923
  11340.854  11340.810  0.500  1.825485  71.4151  118.165  19.041
  11353.629  11353.590  0.500  1.821925  71.7497  118.781  19.2085
  11366.568  11366.550  0.500  1.816696  72.2759  119.72  19.4619
  11379.700  11379.680  0.500  1.811419  72.2528  119.747  19.5693
  11392.999  11392.980  0.500  1.807021  71.2126  118.09  19.3836
  11406.459  11406.450  0.500  1.801862  71.7046  118.985  19.6316
  11420.116  11420.100  0.500  1.797715  71.4976  118.695  19.6651
  11433.914  11433.910  0.500  1.793804  71.2058  118.278  19.6728
  11447.935  11447.900  0.500  1.788570  70.9286  117.905  19.7136
  11462.081  11462.060  0.500  1.782767  70.6499  117.499  19.7601
  11476.412  11476.390  0.500  1.777837  69.9156  116.358  19.665
  11490.917  11490.890  0.500  1.773279  70.1835  116.859  19.8397
  11505.586  11505.560  0.500  1.768630  69.8861  116.449  19.8623
  11520.420  11520.400  0.500  1.764019  69.6071  116.04  19.884
  11535.432  11535.420  0.500  1.758773  69.3225  115.649  19.9213
  11550.623  11550.600  0.500  1.753131  68.9547  115.1  19.9389
  11565.994  11565.960  0.500  1.747914  66.9806  111.879  19.4822
  11581.511  11581.490  0.500  1.742936  67.2552  112.413  19.673
  11597.217  11597.190  0.500  1.738213  67.0121  112.079  19.7073
  11613.096  11613.060  0.500  1.733532  66.8117  111.809  19.7522
  11629.154  11629.110  0.500  1.728067  66.5428  111.432  19.7935
  11645.357  11645.320  0.500  1.722033  66.3383  111.157  19.864
  11661.742  11661.710  0.500  1.716337  65.9283  110.533  19.8654
  11678.311  11678.270  0.500  1.711248  65.7656  110.338  19.9315
  11695.028  11695.000  0.500  1.706045  65.6884  110.269  20.0229
  11711.932  11711.900  0.500  1.701125  65.4413  109.938  20.0612
  11723.304  11723.260  0.500  1.697549  65.2266  109.633  20.0772