File: xdidata/Data/Lu/Lu-L1-Lu2TiO5.xdi
# XDI/1.0 BlueSky/1.10.0 BMM/2023-1.0-py310-tiled
# Beamline.name: BMM (06BM) -- Beamline for Materials Measurement (NIST)
# Beamline.xray_source: NSLS-II three-pole wiggler
# Beamline.collimation: paraboloid mirror, 5 nm Rh on 30 nm Pt
# Beamline.focusing: not in use
# Beamline.harmonic_rejection: flat mirror, Pt stripe, pitch = 7.0 mrad relative to beam
# Beamline.software: Bluesky 1.10.0, Ophyd 1.7.0, DataBroker 2.0.0b13, Python 3.10.8, 2023-1.0-py310-tiled
# Detector.I0: 10 cm N2
# Detector.I1: 25 cm N2
# Detector.I2: 25 cm N2
# Element.symbol: Lu
# Element.edge: L1
# Element.reference: Lu
# Element.reference_material: Lu2O3
# Facility.name: NSLS-II
# Facility.energy: 3.0
# Facility.current: 400.6
# Facility.mode: top-off
# Facility.GUP: 123456
# Facility.SAF: 301027
# Facility.cycle: 2023-2
# Mono.name: Si(111)
# Mono.d_spacing: 3.13519
# Mono.encoder_resolution: 0.0000050 deg/ct
# Mono.angle_offset: 16.0754 deg
# Mono.scan_mode: pseudo channel cut
# Mono.scan_type: step
# Mono.direction: forward in energy
# Sample.name: Lu2TiO5
# Sample.prep: Powder in PEG pellet
# Sample.x: 149.848 mm
# Sample.y: 114.690 mm
# Sample.SDD_position: 205.000 mm
# Scan.experimenters: Bruce Ravel
# Scan.edge_energy: 10870.4
# Scan.start_time: 2023-05-08T23:11:23
# Scan.end_time: 2023-05-08T23:17:06
# Scan.transient_id: 75711
# Scan.uid: 26c7d0ff-6972-44b1-a57b-4815277eecb1
# Scan.plot_hint: ln(I0/It)  --  ln($5/$6)
# Column.1: energy eV
# Column.2: requested_energy eV
# Column.3: measurement_time seconds
# Column.4: xmu
# Column.5: I0 nA
# Column.6: It nA
# Column.7: Ir nA
# ///////////
# sample courtesy Martin Stennett, University of Sheffield
# -----------
# energy  requested_energy  measurement_time  xmu  I0  It  Ir
  10670.465  10670.400  0.500  0.721064  83.087  40.3998  7.211127
  10690.497  10690.400  0.500  0.717008  82.6643  40.3576  7.248302
  10710.472  10710.400  0.500  0.713089  82.2831  40.3292  7.292145
  10730.423  10730.400  0.500  0.709574  81.8839  40.2749  7.328805
  10750.389  10750.400  0.500  0.705937  81.4965  40.2304  7.357438
  10770.421  10770.400  0.500  0.701441  80.3622  39.8492  7.333126
  10790.418  10790.400  0.500  0.697636  79.9543  39.7981  7.377853
  10810.425  10810.400  0.500  0.694241  79.5851  39.749  7.425897
  10830.416  10830.400  0.500  0.691121  78.935  39.5476  7.412484
  10842.370  10842.400  0.500  0.689018  78.9024  39.6144  7.438642
  10846.371  10846.400  0.500  0.688280  78.654  39.5189  7.426694
  10850.365  10850.400  0.500  0.688110  78.751  39.5743  7.440815
  10854.367  10854.400  0.500  0.687785  78.44  39.4308  7.417515
  10858.376  10858.400  0.500  0.687402  78.5526  39.5026  7.430277
  10860.859  10860.900  0.500  0.687580  78.3811  39.4094  7.410692
  10861.857  10861.900  0.500  0.687473  78.4851  39.4659  7.419130
  10862.860  10862.900  0.500  0.687442  78.4923  39.4707  7.416054
  10863.864  10863.900  0.500  0.687641  78.4535  39.4434  7.408093
  10864.873  10864.900  0.500  0.687830  78.4214  39.4197  7.399422
  10865.872  10865.900  0.500  0.687925  78.3845  39.3974  7.387786
  10866.877  10866.900  0.500  0.688192  78.2255  39.3071  7.361543
  10867.866  10867.900  0.500  0.688903  78.0829  39.2075  7.330608
  10868.865  10868.900  0.500  0.689635  78.2821  39.2788  7.327335
  10869.876  10869.900  0.500  0.690368  78.3174  39.2677  7.300366
  10870.896  10870.900  0.500  0.691823  78.3017  39.2028  7.251453
  10871.886  10871.900  0.500  0.693745  78.263  39.1081  7.182510
  10872.897  10872.900  0.500  0.696360  78.2255  38.9873  7.096373
  10873.892  10873.900  0.500  0.699072  78.2009  38.8695  7.009674
  10874.882  10874.900  0.500  0.701466  78.1034  38.7282  6.928677
  10875.883  10875.900  0.500  0.703775  78.0108  38.5931  6.849837
  10876.890  10876.900  0.500  0.706110  78.0828  38.5386  6.784340
  10877.881  10877.900  0.500  0.708443  78.0872  38.4509  6.708347
  10878.892  10878.900  0.500  0.711262  78.068  38.3333  6.625517
  10879.904  10879.900  0.500  0.714199  78.0501  38.2121  6.541267
  10880.896  10880.900  0.500  0.717393  78.0258  38.0784  6.449509
  10881.903  10881.900  0.500  0.721117  78.0123  37.9303  6.342316
  10882.905  10882.900  0.500  0.725419  77.9856  37.7545  6.216086
  10883.882  10883.900  0.500  0.730236  77.946  37.554  6.086394
  10884.885  10884.900  0.500  0.734454  77.941  37.3935  5.970230
  10885.893  10885.900  0.500  0.737432  77.9189  37.2718  5.899762
  10886.890  10886.900  0.500  0.738361  77.8879  37.2224  5.878422
  10887.904  10887.900  0.500  0.737596  77.8547  37.235  5.895669
  10888.897  10888.900  0.500  0.736207  77.8482  37.2836  5.932797
  10889.911  10889.900  0.500  0.734475  77.8332  37.3411  5.965472
  10890.899  10890.900  0.500  0.733174  77.8202  37.3834  5.983126
  10891.882  10891.900  0.500  0.732239  77.7973  37.4073  5.984261
  10892.902  10892.900  0.500  0.731546  77.7663  37.4184  5.977507
  10893.886  10893.900  0.500  0.730889  77.7442  37.4323  5.973594
  10894.895  10894.900  0.500  0.730040  77.7214  37.4531  5.974580
  10896.415  10896.390  0.500  0.728810  77.7013  37.4896  5.991078
  10898.425  10898.410  0.500  0.727293  77.6507  37.522  6.029525
  10900.529  10900.520  0.500  0.725895  77.6181  37.5587  6.093852
  10902.726  10902.700  0.500  0.724043  77.588  37.6138  6.164366
  10904.976  10904.960  0.500  0.721712  77.5239  37.6704  6.233872
  10907.294  10907.290  0.500  0.719440  77.4638  37.7268  6.294280
  10909.711  10909.700  0.500  0.717432  77.42  37.7812  6.345831
  10912.197  10912.180  0.500  0.715996  77.3745  37.8133  6.371214
  10914.761  10914.740  0.500  0.714988  77.2939  37.812  6.374174
  10917.393  10917.380  0.500  0.715220  77.2518  37.7827  6.363031
  10920.115  10920.100  0.500  0.715590  77.2099  37.7482  6.346574
  10922.895  10922.890  0.500  0.716379  77.1594  37.6938  6.325167
  10925.760  10925.750  0.500  0.717053  77.109  37.6438  6.305447
  10928.719  10928.690  0.500  0.717736  77.0369  37.5829  6.279762
  10931.711  10931.710  0.500  0.718541  76.9576  37.514  6.243816
  10934.830  10934.810  0.500  0.718805  76.9079  37.4799  6.214840
  10937.997  10937.980  0.500  0.718579  76.8479  37.4591  6.188095
  10941.249  10941.230  0.500  0.717945  77.0685  37.5904  6.189409
  10944.565  10944.550  0.500  0.717478  77.0297  37.5891  6.190505
  10947.956  10947.950  0.500  0.716670  76.9351  37.5732  6.203096
  10951.443  10951.430  0.500  0.715714  76.8507  37.5679  6.235161
  10954.990  10954.980  0.500  0.714637  76.7945  37.5809  6.281919
  10958.643  10958.610  0.500  0.713565  76.6993  37.5746  6.321150
  10962.304  10962.310  0.500  0.712363  76.636  37.5887  6.344112
  10966.108  10966.090  0.500  0.711517  76.5608  37.5836  6.349726
  10969.946  10969.950  0.500  0.710714  76.4844  37.5763  6.351572
  10973.892  10973.880  0.500  0.709897  76.4086  37.5697  6.352250
  10977.893  10977.890  0.500  0.708913  76.2925  37.5496  6.360335
  10982.001  10981.980  0.500  0.707907  76.2332  37.5581  6.378160
  10986.145  10986.140  0.500  0.707228  76.1459  37.5406  6.389666
  10990.390  10990.380  0.500  0.706342  76.0485  37.5258  6.397526
  10994.697  10994.690  0.500  0.705627  75.9831  37.5204  6.406288
  10999.087  10999.080  0.500  0.705156  75.8746  37.4845  6.403150
  11003.563  11003.550  0.500  0.705001  75.8008  37.4538  6.392305
  11008.091  11008.090  0.500  0.704556  75.6929  37.4171  6.377699
  11012.723  11012.710  0.500  0.704282  75.5794  37.3712  6.357455
  11017.427  11017.400  0.500  0.703413  75.5058  37.3673  6.357475
  11022.183  11022.170  0.500  0.702360  75.3893  37.349  6.366888
  11027.038  11027.020  0.500  0.701219  75.2939  37.3443  6.381913
  11031.977  11031.950  0.500  0.699967  75.1859  37.3375  6.397948
  11036.962  11036.950  0.500  0.698703  75.0738  37.3289  6.421193
  11042.047  11042.020  0.500  0.697600  74.9665  37.3167  6.452073
  11047.191  11047.170  0.500  0.696695  74.867  37.301  6.480252
  11052.418  11052.400  0.500  0.695600  74.7531  37.285  6.497389
  11057.720  11057.710  0.500  0.694781  74.6586  37.2684  6.494372
  11063.127  11063.090  0.500  0.693893  74.5487  37.2466  6.491747
  11068.588  11068.550  0.500  0.693092  74.4155  37.2098  6.491524
  11074.092  11074.080  0.500  0.691940  74.2876  37.1887  6.499111
  11079.708  11079.690  0.500  0.690932  74.175  37.1697  6.510133
  11085.388  11085.370  0.500  0.689896  74.0603  37.1507  6.519762
  11091.160  11091.140  0.500  0.688858  73.9457  37.1318  6.531723
  11096.981  11096.970  0.500  0.687660  73.7422  37.074  6.535919
  11102.904  11102.890  0.500  0.686835  73.6916  37.0791  6.546288
  11108.919  11108.880  0.500  0.685854  73.5677  37.0531  6.543321
  11114.979  11114.950  0.500  0.684865  73.4098  37.0101  6.540032
  11121.115  11121.090  0.500  0.683805  73.3251  37.0067  6.549666
  11127.334  11127.310  0.500  0.682913  73.1938  36.9734  6.562930
  11133.640  11133.600  0.500  0.681622  73.0566  36.9517  6.576618
  11139.996  11139.970  0.500  0.680357  72.9461  36.9425  6.593996
  11146.452  11146.420  0.500  0.679140  72.7744  36.9004  6.606722
  11152.964  11152.950  0.500  0.677784  72.6693  36.8972  6.626214
  11159.581  11159.550  0.500  0.676679  72.5334  36.8689  6.640870
  11166.255  11166.220  0.500  0.675611  72.4119  36.8465  6.655138
  11173.018  11172.970  0.500  0.674253  72.2917  36.8353  6.667924
  11179.838  11179.800  0.500  0.673119  72.1371  36.7982  6.668955
  11186.749  11186.710  0.500  0.671824  72.0117  36.7819  6.674216
  11193.728  11193.690  0.500  0.670675  71.8836  36.7586  6.682893
  11200.776  11200.750  0.500  0.669340  71.7379  36.7331  6.693803
  11207.909  11207.880  0.500  0.668139  71.5841  36.6984  6.705407
  11215.155  11215.090  0.500  0.666895  71.4627  36.6818  6.717902
  11222.438  11222.380  0.500  0.665480  71.304  36.6522  6.727283
  11229.775  11229.740  0.500  0.664242  71.1622  36.6245  6.738611
  11237.209  11237.180  0.500  0.662926  70.8533  36.5136  6.736435
  11244.719  11244.690  0.500  0.661583  70.9974  36.6371  6.779105
  11252.316  11252.280  0.500  0.660207  70.8057  36.5884  6.785333
  11259.990  11259.950  0.500  0.658865  70.6298  36.5466  6.794197
  11267.730  11267.690  0.500  0.657631  70.4815  36.5149  6.805323
  11275.530  11275.510  0.500  0.656243  70.2681  36.4548  6.813710
  11283.429  11283.410  0.500  0.654814  70.1397  36.4403  6.830744
  11291.412  11291.380  0.500  0.653461  69.9326  36.3819  6.840728
  11299.451  11299.430  0.500  0.653030  68.8009  35.8086  6.750629
  11307.557  11307.550  0.500  0.650694  69.6655  36.3434  6.869333
  11315.769  11315.750  0.500  0.649113  69.4194  36.2723  6.875297
  11324.044  11324.030  0.500  0.647828  69.3542  36.2848  6.894381
  11332.392  11332.380  0.500  0.646322  69.0908  36.2014  6.891608
  11340.831  11340.810  0.500  0.645471  68.7138  36.0346  6.873626
  11349.334  11349.310  0.500  0.643600  68.3389  35.9051  6.868073
  11357.899  11357.890  0.500  0.648300  58.8779  30.7893  5.908802
  11366.557  11366.550  0.500  0.640645  68.4141  36.051  6.939148
  11375.301  11375.290  0.500  0.639184  66.9329  35.322  6.819693
  11384.120  11384.100  0.500  0.637527  68.2455  36.0744  6.986449
  11393.005  11392.980  0.500  0.635219  66.1218  35.0326  6.804776
  11401.959  11401.940  0.500  0.634379  67.8559  35.9816  7.009258
  11411.008  11410.980  0.500  0.632943  67.6199  35.908  7.015767
  11415.560  11415.530  0.500  0.631726  67.092  35.6711  6.975928