File: xdidata/Ti/Ti-K-CaTiO3.xdi
# XDI/1.0 BlueSky/1.5.0
# Beamline.name: 6BM
# Beamline.xray_source: NSLS-II three-pole wiggler
# Beamline.collimation: paraboloid mirror, 5 nm Rh on 30 nm Pt
# Beamline.focusing: not in use
# Beamline.harmonic_rejection: flat mirror, Si stripe, pitch = 7.0 mrad relative to beam
# Detector.i0: 10 cm N2
# Detector.i1: 25 cm N2
# Detector.i2: 25 cm N2
# Element.symbol: Ti
# Element.edge: K
# Facility.name: NSLS-II
# Facility.energy: 3.0
# Facility.current: 220.1
# Facility.mode: top-off
# Facility.gup: 301027
# Facility.saf: 304156
# Mono.name: Si(111)
# Mono.d_spacing: 3.13526
# Mono.encoder_resolution: 0.0000050 deg/ct
# Mono.angle_offset: 16.0571 deg
# Mono.scan_mode: pseudo channel cut
# Mono.scan_type: step
# Mono.direction: forward in energy
# Sample.name: CaTiO3
# Sample.prep: Powder in polyethylene glycol pellet
# Sample.x_position: -97.532 mm
# Sample.y_position: 117.543 mm
# Sample.wheel_position: -450.000 mm
# Scan.experimenters: Bruce Ravel, Martin Stennett
# Scan.edge_energy: 4966.0
# Scan.start_time: 2019-05-29T20:28:09
# Scan.end_time: 2019-05-29T21:11:16
# Scan.transient_id: 9758
# Scan.uid: 7de68e6b-651d-44d7-99e1-867c63bb4988
# Scan.plot_hint: ln(I0/It)  --  ln($5/$6)
# Scan.sequence: merge of 3 scans
# Column.1: energy eV
# Column.2: requested_energy eV
# Column.3: measurement_time seconds
# Column.4: mutrans
# Column.5: i0
# Column.6: itrans
# Column.7: irefer
# /////
#  sample disk prepared by Martin
# -----
# energy   requested_energy   measurement_time   mutrans   i0   itrans   irefer
4765.98 4766 0.500000 3.533481 10.9025 0.318387 0.025723
4796.01 4796 0.500000 3.457477 11.64 0.366766 0.030774
4826.01 4826 0.500000 3.384898 12.386 0.419652 0.036302
4856.01 4856 0.500000 3.312807 13.1304 0.478127 0.043187
4886.01 4886 0.500000 3.243968 13.8426 0.539986 0.050331
4916 4916 0.500000 3.176693 14.5519 0.607157 0.058953
4938 4938 0.500000 3.128853 15.053 0.658839 0.065676
4944.01 4944 0.500000 3.115895 15.1774 0.672953 0.067515
4950.01 4950 0.500000 3.103264 15.2885 0.686490 0.069222
4956 4956 0.500000 3.091141 15.3956 0.699725 0.071065
4956.74 4956.75 0.500000 3.090044 15.4035 0.700857 0.070969
4957.49 4957.5 0.500000 3.088486 15.4132 0.702396 0.071299
4958.24 4958.25 0.500000 3.087402 15.4253 0.703704 0.071529
4958.99 4959 0.500000 3.085661 15.4754 0.707223 0.071756
4959.75 4959.75 0.500000 3.084281 15.5096 0.709764 0.071904
4960.5 4960.5 0.500000 3.082883 15.5251 0.711467 0.072107
4961.25 4961.25 0.500000 3.081552 15.5357 0.712904 0.071829
4962 4962 0.500000 3.080425 15.5501 0.714368 0.071787
4962.74 4962.75 0.500000 3.078926 15.5651 0.716127 0.071333
4963.5 4963.5 0.500000 3.077575 15.5805 0.717810 0.070221
4964.25 4964.25 0.500000 3.076365 15.5975 0.719459 0.065229
4965 4965 0.500000 3.075311 15.6272 0.721590 0.052415
4965.75 4965.75 0.500000 3.074830 15.6543 0.723188 0.049881
4966.5 4966.5 0.500000 3.077055 15.665 0.722080 0.055341
4967.25 4967.25 0.500000 3.083333 15.6739 0.717964 0.056361
4968 4968 0.500000 3.079806 15.6913 0.721301 0.054628
4968.75 4968.75 0.500000 3.091032 15.704 0.713853 0.051423
4969.5 4969.5 0.500000 3.108055 15.708 0.701956 0.048943
4970.25 4970.25 0.500000 3.104873 15.7242 0.704914 0.048242
4971 4971 0.500000 3.098136 15.7574 0.711181 0.047990
4971.75 4971.75 0.500000 3.098342 15.775 0.711798 0.046111
4972.5 4972.5 0.500000 3.114849 15.7864 0.700695 0.042778
4973.25 4973.25 0.500000 3.119240 15.7965 0.698060 0.039864
4974 4974 0.500000 3.117685 15.8081 0.699656 0.037795
4974.75 4974.75 0.500000 3.116869 15.8134 0.700464 0.035876
4975.5 4975.5 0.500000 3.114380 15.8112 0.702110 0.033862
4976.25 4976.25 0.500000 3.113796 15.81 0.702468 0.032152
4977 4977 0.500000 3.120903 15.8135 0.697635 0.030506
4977.75 4977.75 0.500000 3.133701 15.8218 0.689151 0.029365
4978.5 4978.5 0.500000 3.156618 15.8318 0.673968 0.028062
4979.25 4979.25 0.500000 3.182538 15.8303 0.656609 0.026991
4980 4980 0.500000 3.208147 15.8193 0.639634 0.025933
4980.75 4980.75 0.500000 3.236306 15.8143 0.621611 0.025174
4981.5 4981.5 0.500000 3.276741 15.8134 0.597009 0.023982
4982.25 4982.25 0.500000 3.340622 15.8208 0.560333 0.022204
4983 4983 0.500000 3.415003 15.8268 0.520250 0.021157
4983.75 4983.75 0.500000 3.471580 15.8213 0.491614 0.019847
4984.5 4984.5 0.500000 3.488176 15.8198 0.483411 0.019702
4985.25 4985.25 0.500000 3.473988 15.8256 0.490468 0.020327
4986 4986 0.500000 3.450139 15.8245 0.502275 0.020730
4986.75 4986.75 0.500000 3.431233 15.8189 0.511698 0.021505
4987.5 4987.5 0.500000 3.425715 15.8172 0.514465 0.021773
4988.25 4988.25 0.500000 3.423265 15.8621 0.517195 0.021929
4989 4989 0.500000 3.423323 15.9278 0.519311 0.021916
4989.75 4989.75 0.500000 3.425320 15.9621 0.519393 0.022151
4990.51 4990.5 0.500000 3.425763 15.9988 0.520356 0.022154
4991.25 4991.25 0.500000 3.422864 16.0319 0.522937 0.022278
4992 4992 0.500000 3.420338 16.0607 0.525208 0.022416
4992.75 4992.75 0.500000 3.420695 16.0802 0.525658 0.022668
4993.5 4993.5 0.500000 3.418814 16.0954 0.527146 0.022549
4994.25 4994.25 0.500000 3.412933 16.1472 0.531957 0.022952
4995 4995 0.500000 3.409642 16.156 0.534002 0.022568
4995.75 4995.75 0.500000 3.412193 16.186 0.533628 0.022446
4998.19 4998.18 0.730000 3.436241 23.618 0.760159 0.030126
5001.59 5001.58 0.760000 3.434182 24.6843 0.796109 0.031364
5005.17 5005.16 0.800000 3.372044 26.1654 0.897984 0.036062
5008.92 5008.91 0.840000 3.327497 27.6657 0.992722 0.042227
5012.84 5012.83 0.880000 3.294295 29.1481 1.081225 0.047522
5016.94 5016.93 0.910000 3.285462 30.2956 1.133759 0.051336
5021.19 5021.19 0.950000 3.272010 31.8089 1.206503 0.056229
5025.64 5025.63 0.990000 3.259565 33.3366 1.280291 0.059159
5030.25 5030.24 1.030000 3.261298 34.8706 1.336902 0.060667
5035.02 5035.01 1.060000 3.243479 36.0745 1.407911 0.059972
5039.98 5039.97 1.100000 3.241027 37.6362 1.472446 0.060874
5045.09 5045.09 1.140000 3.252261 39.2042 1.516678 0.065217
5050.38 5050.38 1.180000 3.247860 40.7869 1.584865 0.072450
5055.84 5055.84 1.210000 3.242424 42.0598 1.643235 0.078959
5061.48 5061.48 1.250000 3.232560 43.7068 1.724516 0.083452
5067.29 5067.29 1.290000 3.220857 45.3694 1.811199 0.089747
5073.27 5073.27 1.330000 3.191558 47.1227 1.937141 0.097312
5079.42 5079.42 1.360000 3.177319 48.6465 2.028426 0.098816
5085.74 5085.74 1.400000 3.162494 50.3946 2.132702 0.099036
5092.23 5092.23 1.440000 3.138504 52.1698 2.261417 0.103127
5098.9 5098.9 1.480000 3.120857 53.9621 2.380771 0.116656
5105.74 5105.74 1.510000 3.106402 55.3849 2.479123 0.129096
5112.74 5112.74 1.550000 3.093194 57.2708 2.597625 0.136467
5119.92 5119.92 1.590000 3.080890 59.117 2.714555 0.144002
5127.27 5127.27 1.630000 3.073582 61.0235 2.822656 0.151835
5134.79 5134.79 1.660000 3.063070 62.6087 2.926574 0.158475
5142.49 5142.49 1.700000 3.045543 64.6024 3.073188 0.164838
5150.35 5150.35 1.740000 3.028932 66.6115 3.221813 0.170665
5158.39 5158.39 1.780000 3.010421 68.652 3.382545 0.184326
5166.6 5166.6 1.810000 2.994704 70.3369 3.520460 0.197828
5174.98 5174.98 1.850000 2.977076 72.4036 3.688376 0.214050
5183.53 5183.53 1.890000 2.958573 74.506 3.866328 0.229028
5192.25 5192.25 1.930000 2.941472 76.6292 4.045118 0.242036
5201.14 5201.14 1.960000 2.921989 78.3453 4.217059 0.253143
5210.21 5210.21 2.000000 2.903620 80.747 4.426896 0.266398
5219.45 5219.45 2.040000 2.886652 83.1915 4.638984 0.282567
5228.85 5228.85 2.080000 2.871094 85.4333 4.838711 0.299719
5238.43 5238.43 2.110000 2.855831 87.4048 5.026492 0.317748
5248.18 5248.18 2.150000 2.840531 89.4666 5.224349 0.338404
5258.11 5258.11 2.190000 2.820948 92.5894 5.513636 0.364322
5268.2 5268.2 2.230000 2.802379 95.2464 5.778150 0.386751
5278.47 5278.47 2.260000 2.784650 96.6045 5.965376 0.402604
5288.9 5288.9 2.300000 2.766493 100.333 6.309171 0.430590
5299.51 5299.51 2.340000 2.747916 103.018 6.599458 0.457855
5310.29 5310.29 2.380000 2.729951 105.92 6.908319 0.487024
5321.24 5321.24 2.410000 2.711131 108.049 7.181091 0.514653
5332.36 5332.36 2.450000 2.692117 110.443 7.481102 0.546569
5343.66 5343.66 2.490000 2.672279 113.295 7.828103 0.583457
5355.12 5355.12 2.530000 2.654831 115.086 8.091764 0.613493
5366.76 5366.76 2.560000 2.636493 118.1 8.457421 0.649135
5378.57 5378.57 2.600000 2.618879 119.994 8.745726 0.680454
5390.55 5390.55 2.640000 2.599735 121.868 9.053977 0.716372
5402.7 5402.7 2.680000 2.580130 123.722 9.373662 0.754359
5415.02 5415.02 2.710000 2.560168 124.5 9.622760 0.788272
5427.52 5427.52 2.750000 2.540535 125.581 9.898842 0.825767
5440.18 5440.18 2.790000 2.520552 126.739 10.1917 0.865699
5453.02 5453.02 2.830000 2.500814 128.27 10.5205 0.908360
5466.03 5466.03 2.860000 2.480773 129.722 10.8549 0.951958
5479.21 5479.21 2.900000 2.460337 131.873 11.2627 1.004087
5492.56 5492.56 2.940000 2.439971 134.204 11.6976 1.059792
5506.08 5506.08 2.980000 2.419246 137.172 12.2068 1.124877
5519.78 5519.78 3.010000 2.399296 139.531 12.6668 1.186402
5533.64 5533.64 3.050000 2.379178 142.685 13.2164 1.259806
5547.68 5547.68 3.090000 2.358791 145.746 13.778 1.336235
5561.89 5561.89 3.130000 2.338291 149.216 14.3982 1.419369
5576.27 5576.27 3.160000 2.317881 151.835 14.953 1.499351
5590.82 5590.82 3.200000 2.297931 155.013 15.5735 1.587882
5605.54 5605.54 3.240000 2.277688 157.979 16.1961 1.678492
5620.44 5620.44 3.280000 2.257082 160.834 16.8321 1.774273
5635.5 5635.5 3.310000 2.236912 161.863 17.2849 1.854965
5650.74 5650.74 3.350000 2.215736 164.846 17.9802 1.963904
5666.15 5666.15 3.390000 2.195358 168.008 18.7024 2.078035
5681.73 5681.73 3.430000 2.175082 171.778 19.5138 2.205348
5697.48 5697.48 3.460000 2.154673 174.501 20.2318 2.326141
5708.08 5708.08 3.490000 2.140954 176.478 20.7436 2.412321