File: xdidata/Ti/Ti-K-Ce23TiO3.xdi
# XDI/1.0 BlueSky/1.5.0
# Beamline.name: 6BM
# Beamline.xray_source: NSLS-II three-pole wiggler
# Beamline.collimation: paraboloid mirror, 5 nm Rh on 30 nm Pt
# Beamline.focusing: not in use
# Beamline.harmonic_rejection: flat mirror, Si stripe, pitch = 7.0 mrad relative to beam
# Detector.i0: 10 cm N2
# Detector.i1: 25 cm N2
# Detector.i2: 25 cm N2
# Element.symbol: Ti
# Element.edge: K
# Facility.name: NSLS-II
# Facility.energy: 3.0
# Facility.current: 219.5
# Facility.mode: top-off
# Facility.gup: 301027
# Facility.saf: 304156
# Mono.name: Si(111)
# Mono.d_spacing: 3.13526
# Mono.encoder_resolution: 0.0000050 deg/ct
# Mono.angle_offset: 16.0571 deg
# Mono.scan_mode: pseudo channel cut
# Mono.scan_type: step
# Mono.direction: forward in energy
# Sample.name: Ce2/3TiO3
# Sample.prep: Powder in polyethylene glycol pellet
# Sample.x_position: -113.290 mm
# Sample.y_position: 117.505 mm
# Sample.wheel_position: 240.000 mm
# Scan.experimenters: Bruce Ravel, Martin Stennett
# Scan.edge_energy: 4966.0
# Scan.start_time: 2019-05-30T18:46:41
# Scan.end_time: 2019-05-30T19:30:34
# Scan.transient_id: 9849
# Scan.uid: e2b11d3c-c12a-4aa5-b32c-5765a332a951
# Scan.plot_hint: (DTC1 + DTC2 + DTC3 + DTC4) / I0  --  ($8+$9+$10+$11) / $5
# Scan.sequence: merge of 3 scans
# Column.1: energy eV
# Column.2: requested_energy eV
# Column.3: measurement_time seconds
# Column.4: mutrans
# Column.5: i0
# Column.6: itrans
# Column.7: irefer
# /////
#  sample disk prepared by Martin
# -----
# energy   requested_energy   measurement_time   mutrans   i0   itrans   irefer
4765.99 4766 0.500000 79.5582 10.4733 0.031846 0.004947
4796.01 4796 0.500000 69.1128 11.2125 0.036379 0.005379
4826.01 4826 0.500000 60.2271 12.0114 0.043954 0.006379
4856 4856 0.500000 48.1224 12.7736 0.052052 0.007362
4886 4886 0.500000 37.7404 13.6139 0.062320 0.008892
4916 4916 0.500000 32.5281 14.4559 0.073739 0.010577
4938 4938 0.500000 28.5963 15.0395 0.082315 0.011506
4943.99 4944 0.500000 29.059 15.1872 0.085211 0.012053
4950 4950 0.500000 30.3947 15.3235 0.087708 0.012403
4956 4956 0.500000 31.0998 15.4596 0.089832 0.012575
4956.74 4956.75 0.500000 32.5556 15.4801 0.090646 0.012988
4957.49 4957.5 0.500000 33.8666 15.4906 0.090778 0.012945
4958.25 4958.25 0.500000 32.9506 15.5078 0.091267 0.012816
4958.99 4959 0.500000 32.018 15.5283 0.091397 0.012817
4959.74 4959.75 0.500000 34.6127 15.5413 0.091663 0.012903
4960.5 4960.5 0.500000 33.1088 15.5545 0.091976 0.012914
4961.24 4961.25 0.500000 36.7866 15.5717 0.092301 0.013029
4962 4962 0.500000 36.4742 15.5901 0.092499 0.012985
4962.75 4962.75 0.500000 38.7553 15.6058 0.092862 0.012884
4963.5 4963.5 0.500000 41.0483 15.6239 0.093247 0.012757
4964.25 4964.25 0.500000 43.3959 15.638 0.093507 0.012306
4965 4965 0.500000 48.9233 15.6564 0.093659 0.010481
4965.75 4965.75 0.500000 61.5758 15.6681 0.093529 0.009348
4966.5 4966.5 0.500000 84.5031 15.6796 0.093269 0.010263
4967.25 4967.25 0.500000 118.636 15.689 0.092305 0.010529
4968 4968 0.500000 149.383 15.7083 0.091671 0.010096
4968.75 4968.75 0.500000 187.657 15.7219 0.090567 0.009645
4969.5 4969.5 0.500000 239.64 15.7233 0.089191 0.009242
4970.25 4970.25 0.500000 235.691 15.7335 0.090003 0.009333
4971 4971 0.500000 231.107 15.7641 0.090372 0.009117
4971.75 4971.75 0.500000 240.282 15.7837 0.090338 0.008890
4972.5 4972.5 0.500000 266.228 15.7953 0.089869 0.008225
4973.25 4973.25 0.500000 290.936 15.802 0.089550 0.008140
4974 4974 0.500000 284.06 15.8108 0.089800 0.007651
4974.75 4974.75 0.500000 283.214 15.8128 0.090356 0.007295
4975.5 4975.5 0.500000 295.423 15.817 0.090150 0.006837
4976.25 4976.25 0.500000 325.436 15.8546 0.089546 0.006724
4977 4977 0.500000 383.783 15.8532 0.087994 0.006533
4977.75 4977.75 0.500000 465.741 15.8584 0.085851 0.005981
4978.5 4978.5 0.500000 573.811 15.8679 0.083082 0.005776
4979.25 4979.25 0.500000 726.399 15.8963 0.079101 0.005435
4980 4980 0.500000 903.076 15.8906 0.074474 0.005196
4980.75 4980.75 0.500000 1116.08 15.9225 0.069601 0.005107
4981.5 4981.5 0.500000 1329.19 15.9188 0.064639 0.004691
4982.25 4982.25 0.500000 1538.86 15.929 0.059988 0.004492
4983 4983 0.500000 1691.72 15.9366 0.056770 0.004314
4983.75 4983.75 0.500000 1789 15.9376 0.055246 0.004295
4984.5 4984.5 0.500000 1761.43 15.9366 0.055495 0.004291
4985.25 4985.25 0.500000 1702.44 15.9408 0.056958 0.004358
4986 4986 0.500000 1642.17 15.9472 0.058718 0.004715
4986.75 4986.75 0.500000 1587.01 15.9439 0.059846 0.004605
4987.5 4987.5 0.500000 1562.64 15.9394 0.060414 0.004619
4988.25 4988.25 0.500000 1572.54 15.9479 0.060405 0.004429
4989 4989 0.500000 1583.2 15.9813 0.060660 0.004563
4989.75 4989.75 0.500000 1597.01 16.0232 0.060525 0.004527
4990.5 4990.5 0.500000 1614.65 16.0645 0.060618 0.004848
4991.25 4991.25 0.500000 1650.48 16.1041 0.060220 0.004738
4992 4992 0.500000 1671.71 16.1355 0.059769 0.004513
4992.75 4992.75 0.500000 1694.62 16.1615 0.059684 0.004609
4993.5 4993.5 0.500000 1708.73 16.1785 0.059609 0.004630
4994.25 4994.25 0.500000 1724.7 16.1975 0.059803 0.004852
4995 4995 0.500000 1728.2 16.215 0.059635 0.004767
4995.75 4995.75 0.500000 1753.54 16.2251 0.059665 0.004605
4998.19 4998.18 0.730000 1735.31 23.7165 0.088110 0.006414
5001.59 5001.58 0.760000 1701.46 24.8119 0.094748 0.006770
5005.17 5005.16 0.800000 1580.97 26.3106 0.106094 0.007596
5008.92 5008.91 0.840000 1476.58 27.8342 0.118591 0.008891
5012.84 5012.83 0.880000 1377.57 29.3511 0.131440 0.009814
5016.94 5016.93 0.910000 1349.67 30.5185 0.139936 0.010857
5021.19 5021.19 0.950000 1348.88 32.0663 0.149075 0.011230
5025.64 5025.63 0.990000 1359.27 33.6583 0.158581 0.011715
5030.24 5030.24 1.030000 1391.05 35.3684 0.168167 0.012322
5035.02 5035.01 1.060000 1422.35 36.6062 0.175266 0.012420
5039.98 5039.97 1.100000 1489.27 38.2121 0.182410 0.012749
5045.09 5045.09 1.140000 1490.07 39.8976 0.193396 0.013798
5050.38 5050.38 1.180000 1506.27 41.5361 0.204715 0.015058
5055.83 5055.84 1.210000 1591.05 42.827 0.209749 0.016016
5061.48 5061.48 1.250000 1613.22 44.5077 0.220998 0.016709
5067.28 5067.29 1.290000 1581.03 46.1964 0.236739 0.018049
5073.26 5073.27 1.330000 1566.08 47.9019 0.252437 0.019322
5079.41 5079.42 1.360000 1562.1 49.2316 0.265076 0.019903
5085.74 5085.74 1.400000 1513.43 50.9166 0.285447 0.020532
5092.23 5092.23 1.440000 1512.3 52.6018 0.302092 0.021082
5098.9 5098.9 1.480000 1516.48 54.3052 0.318612 0.023553
5105.74 5105.74 1.510000 1530.22 55.6421 0.333199 0.025580
5112.74 5112.74 1.550000 1552.32 57.3626 0.350390 0.027045
5119.92 5119.92 1.590000 1571.26 59.1093 0.367656 0.028603
5127.27 5127.27 1.630000 1586.84 60.8958 0.387116 0.030203
5134.79 5134.79 1.660000 1601.92 62.3198 0.404585 0.031703
5142.49 5142.49 1.700000 1622.29 64.159 0.425415 0.032417
5150.35 5150.35 1.740000 1633.53 66.0217 0.448920 0.033979
5158.39 5158.39 1.780000 1636.21 68.4404 0.478028 0.036879
5166.6 5166.6 1.810000 1645.73 69.9889 0.501768 0.039407
5174.98 5174.98 1.850000 1642.47 71.9271 0.530927 0.043033
5183.53 5183.53 1.890000 1636.79 73.9202 0.561992 0.045733
5192.25 5192.25 1.930000 1648.88 75.8781 0.592987 0.048562
5201.14 5201.14 1.960000 1663.6 77.4553 0.621362 0.051095
5210.21 5210.21 2.000000 1675.33 79.515 0.655255 0.053456
5219.45 5219.45 2.040000 1680.22 81.48 0.690540 0.057036
5228.85 5228.85 2.080000 1700.39 83.4111 0.725539 0.060285
5238.43 5238.43 2.110000 1719.66 85.035 0.759885 0.064476
5248.18 5248.18 2.150000 1726.26 86.5924 0.797155 0.068363
5258.11 5258.11 2.190000 1746.56 89.1658 0.843120 0.073287
5268.2 5268.2 2.230000 1761.12 91.445 0.888222 0.078319
5278.47 5278.47 2.260000 1772.37 92.153 0.922252 0.081519
5288.9 5288.9 2.300000 1781.96 95.8159 0.988167 0.087793
5299.51 5299.51 2.340000 1791.87 98.7046 1.049273 0.094140
5310.29 5310.29 2.380000 1799.41 101.394 1.112591 0.101015
5321.24 5321.24 2.410000 1809.63 103.243 1.167532 0.107102
5332.36 5332.36 2.450000 1832.4 105.547 1.228532 0.114432
5343.66 5343.66 2.490000 1847.23 107.872 1.293361 0.122547
5355.12 5355.12 2.530000 1862.01 109.203 1.348891 0.128939
5366.76 5366.76 2.560000 1877.26 112.081 1.426560 0.137840
5378.57 5378.57 2.600000 1893.76 113.914 1.495108 0.145416
5390.55 5390.55 2.640000 1907.71 115.637 1.563788 0.154677
5402.7 5402.7 2.680000 1926.22 117.081 1.630550 0.163124
5415.02 5415.02 2.710000 1945.51 117.573 1.686789 0.171502
5427.52 5427.52 2.750000 1965.35 118.249 1.748386 0.180326
5440.18 5440.18 2.790000 1979.74 118.932 1.813822 0.190074
5453.02 5453.02 2.830000 2001.58 120.536 1.896845 0.200961
5466.03 5466.03 2.860000 2017.35 121.156 1.967261 0.211312
5479.21 5479.21 2.900000 2038.73 122.543 2.053309 0.223265
5492.56 5492.56 2.940000 2062.92 124.215 2.144552 0.236103
5506.08 5506.08 2.980000 2080.2 126.272 2.250489 0.251394
5519.78 5519.78 3.010000 2106.32 128.182 2.358065 0.267119
5533.64 5533.64 3.050000 2126.36 130.685 2.481143 0.284555
5547.68 5547.68 3.090000 2146.22 133.483 2.617165 0.304729
5561.89 5561.89 3.130000 2165.25 136.485 2.764370 0.325778
5576.27 5576.27 3.160000 2184.71 138.899 2.905277 0.346840
5590.82 5590.82 3.200000 2216.06 141.891 3.066003 0.371436
5605.54 5605.54 3.240000 2229.15 145.644 3.250698 0.398818
5620.44 5620.44 3.280000 2259.36 148.642 3.428334 0.426635
5635.5 5635.5 3.310000 2280.49 149.992 3.577993 0.452237
5650.74 5650.74 3.350000 2302.97 152.411 3.757601 0.481902
5666.15 5666.15 3.390000 2320.76 155.395 3.958117 0.514986
5681.73 5681.73 3.430000 2344.2 158.598 4.170740 0.550463
5697.48 5697.48 3.460000 2379.83 160.856 4.353954 0.583351
5708.08 5708.08 3.490000 2403.44 162.661 4.453447 0.603336