File: xdidata/Ti/Ti-K-TiN.xdi
# XDI/1.0 BlueSky/1.5.0
# Beamline.name: 6BM
# Beamline.xray_source: NSLS-II three-pole wiggler
# Beamline.collimation: paraboloid mirror, 5 nm Rh on 30 nm Pt
# Beamline.focusing: not in use
# Beamline.harmonic_rejection: flat mirror, Si stripe, pitch = 7.0 mrad relative to beam
# Detector.i0: 10 cm N2
# Detector.i1: 25 cm N2
# Detector.i2: 25 cm N2
# Element.symbol: Ti
# Element.edge: K
# Facility.name: NSLS-II
# Facility.energy: 3.0
# Facility.current: 219.1
# Facility.mode: top-off
# Facility.gup: 301027
# Facility.saf: 304156
# Mono.name: Si(111)
# Mono.d_spacing: 3.13532
# Mono.encoder_resolution: 0.0000050 deg/ct
# Mono.angle_offset: 16.0577 deg
# Mono.scan_mode: pseudo channel cut
# Mono.scan_type: step
# Mono.direction: forward in energy
# Sample.name: Ti nitride
# Sample.prep: powder on tape
# Sample.x_position: -97.500 mm
# Sample.y_position: 115.250 mm
# Sample.wheel_position: 45.000 mm
# Scan.experimenters: Bruce Ravel
# Scan.edge_energy: 4966.0
# Scan.start_time: 2019-06-16T13:11:58
# Scan.end_time: 2019-06-16T15:40:46
# Scan.transient_id: 10612
# Scan.uid: 204f3191-beaf-4c1d-b181-097e120b6375
# Scan.plot_hint: ln(I0/It)  --  ln($5/$6)
# Scan.sequence: merge of 9 scans
# Column.1: energy eV
# Column.2: requested_energy eV
# Column.3: measurement_time seconds
# Column.4: mutrans
# Column.5: i0
# Column.6: itrans
# Column.7: irefer
# /////
#  TiN standard
# -----
# energy   requested_energy   measurement_time   mutrans   i0   itrans   irefer
4765.99 4766 0.500000 3.187610 8.262805 0.341010 0.022627
4796.01 4796 0.500000 3.116731 8.878955 0.393352 0.027729
4826 4826 0.500000 3.048227 9.519446 0.451624 0.033697
4856 4856 0.500000 2.981415 10.1749 0.516075 0.040490
4886 4886 0.500000 2.915851 10.8668 0.588516 0.048181
4916 4916 0.500000 2.851349 11.5643 0.668026 0.057565
4937.99 4938 0.500000 2.805804 12.0871 0.730758 0.065138
4944 4944 0.500000 2.793501 12.239 0.749102 0.067296
4950 4950 0.500000 2.781667 12.3594 0.765480 0.069433
4956 4956 0.500000 2.769938 12.4826 0.782234 0.071176
4956.74 4956.75 0.500000 2.768499 12.4905 0.783859 0.071498
4957.49 4957.5 0.500000 2.767248 12.5043 0.785704 0.071638
4958.24 4958.25 0.500000 2.765690 12.5443 0.789449 0.072051
4959 4959 0.500000 2.764412 12.5598 0.791437 0.072182
4959.75 4959.75 0.500000 2.763289 12.5711 0.793038 0.072092
4960.5 4960.5 0.500000 2.761948 12.5856 0.795015 0.072312
4961.25 4961.25 0.500000 2.760536 12.6005 0.797081 0.072245
4962 4962 0.500000 2.759359 12.6143 0.798894 0.072202
4962.75 4962.75 0.500000 2.758409 12.6309 0.800707 0.071874
4963.49 4963.5 0.500000 2.757382 12.6632 0.803580 0.070889
4964.25 4964.25 0.500000 2.757082 12.6755 0.804604 0.066580
4965 4965 0.500000 2.757476 12.6883 0.805098 0.053893
4965.75 4965.75 0.500000 2.762156 12.7002 0.802113 0.049196
4966.5 4966.5 0.500000 2.768168 12.7101 0.797903 0.054186
4967.25 4967.25 0.500000 2.774555 12.718 0.793313 0.055794
4968 4968 0.500000 2.782069 12.7327 0.788285 0.053791
4968.75 4968.75 0.500000 2.789316 12.7418 0.783135 0.050586
4969.5 4969.5 0.500000 2.796229 12.7498 0.778256 0.048554
4970.25 4970.25 0.500000 2.798830 12.7612 0.776921 0.047578
4971 4971 0.500000 2.797680 12.7891 0.779512 0.047166
4971.75 4971.75 0.500000 2.802263 12.8074 0.777058 0.045055
4972.5 4972.5 0.500000 2.821070 12.8201 0.763306 0.041616
4973.25 4973.25 0.500000 2.848724 12.8337 0.743295 0.037829
4974 4974 0.500000 2.874585 12.8557 0.725564 0.034936
4974.75 4974.75 0.500000 2.894376 12.8651 0.711841 0.032094
4975.5 4975.5 0.500000 2.910014 12.869 0.701057 0.029929
4976.25 4976.25 0.500000 2.924436 12.8702 0.691074 0.027837
4977 4977 0.500000 2.940379 12.874 0.680326 0.026265
4977.75 4977.75 0.500000 2.961033 12.8819 0.666856 0.024775
4978.5 4978.5 0.500000 2.983339 12.902 0.653104 0.023577
4979.25 4979.25 0.500000 3.009580 12.919 0.637058 0.022642
4980 4980 0.500000 3.043521 12.9304 0.616338 0.021646
4980.75 4980.75 0.500000 3.080208 12.9272 0.593984 0.020622
4981.5 4981.5 0.500000 3.114868 12.9485 0.574732 0.019811
4982.25 4982.25 0.500000 3.148368 12.9534 0.555950 0.018985
4983 4983 0.500000 3.176679 12.9618 0.540788 0.018182
4983.75 4983.75 0.500000 3.186458 12.9635 0.535629 0.018131
4984.5 4984.5 0.500000 3.171008 12.9648 0.543991 0.018571
4985.25 4985.25 0.500000 3.141815 12.9874 0.561116 0.019328
4986 4986 0.500000 3.112344 13.0066 0.578716 0.020234
4986.75 4986.75 0.500000 3.087748 13.0085 0.593274 0.021064
4987.5 4987.5 0.500000 3.067000 13.0083 0.605646 0.021669
4988.25 4988.25 0.500000 3.049025 13.0197 0.617200 0.022269
4989 4989 0.500000 3.035963 13.0459 0.626597 0.022579
4989.75 4989.75 0.500000 3.028119 13.0807 0.633191 0.022670
4990.5 4990.5 0.500000 3.024616 13.1271 0.637669 0.023149
4991.25 4991.25 0.500000 3.025965 13.1785 0.639307 0.023182
4992 4992 0.500000 3.031320 13.203 0.637069 0.023239
4992.75 4992.75 0.500000 3.040348 13.2238 0.632325 0.023232
4993.5 4993.5 0.500000 3.051131 13.2437 0.626487 0.022945
4994.25 4994.25 0.500000 3.061994 13.2559 0.620285 0.022604
4995 4995 0.500000 3.069859 13.2691 0.616056 0.022288
4995.75 4995.75 0.500000 3.074128 13.2796 0.613919 0.021783
4998.19 4998.18 0.730000 3.069497 19.4178 0.901907 0.030073
5001.58 5001.58 0.760000 3.034656 20.3222 0.977265 0.032261
5005.16 5005.16 0.800000 2.999424 21.564 1.074202 0.036454
5008.91 5008.91 0.840000 2.961208 22.825 1.181329 0.043539
5012.83 5012.83 0.880000 2.932237 24.1047 1.284237 0.049204
5016.93 5016.93 0.910000 2.920005 25.0903 1.353207 0.053329
5021.19 5021.19 0.950000 2.909725 26.384 1.437681 0.058295
5025.63 5025.63 0.990000 2.924411 27.7082 1.487828 0.060370
5030.24 5030.24 1.030000 2.962194 29.0815 1.503692 0.059602
5035.02 5035.01 1.060000 2.987140 30.189 1.522484 0.056741
5039.98 5039.97 1.100000 2.959309 31.648 1.641110 0.059765
5045.1 5045.09 1.140000 2.926522 33.0683 1.771958 0.066446
5050.39 5050.38 1.180000 2.882874 34.5178 1.932100 0.077442
5055.85 5055.84 1.210000 2.876425 35.7318 2.012962 0.085424
5061.49 5061.48 1.250000 2.880603 37.2959 2.092393 0.089926
5067.3 5067.29 1.290000 2.852203 38.8569 2.242816 0.098850
5073.27 5073.27 1.330000 2.830604 40.4368 2.384862 0.106463
5079.41 5079.42 1.360000 2.839673 41.7207 2.438367 0.106145
5085.73 5085.74 1.400000 2.846486 43.3528 2.516526 0.104405
5092.22 5092.23 1.440000 2.812556 45.0221 2.703614 0.110352
5098.9 5098.9 1.480000 2.784359 46.6742 2.883010 0.126441
5105.73 5105.74 1.510000 2.779987 48.0445 2.980648 0.140191
5112.74 5112.74 1.550000 2.765476 49.7469 3.131381 0.148783
5119.92 5119.92 1.590000 2.746645 51.4633 3.301007 0.158159
5127.27 5127.27 1.630000 2.734684 53.2379 3.455910 0.168777
5134.79 5134.79 1.660000 2.734476 54.7234 3.553077 0.175122
5142.49 5142.49 1.700000 2.731953 56.4626 3.675284 0.178848
5150.35 5150.35 1.740000 2.700677 58.2338 3.910960 0.188666
5158.39 5158.39 1.780000 2.667880 59.9412 4.159886 0.207291
5166.6 5166.6 1.810000 2.647096 61.4004 4.350628 0.223801
5174.98 5174.98 1.850000 2.633257 63.0609 4.530568 0.241249
5183.53 5183.53 1.890000 2.623359 64.7237 4.696263 0.255974
5192.25 5192.25 1.930000 2.612029 66.4383 4.875596 0.268679
5201.14 5201.14 1.960000 2.599945 67.7076 5.029157 0.278858
5210.21 5210.21 2.000000 2.581150 69.4666 5.257730 0.292203
5219.45 5219.45 2.040000 2.565381 71.1169 5.468172 0.308385
5228.85 5228.85 2.080000 2.546527 72.7435 5.699715 0.327365
5238.43 5238.43 2.110000 2.523622 74.0835 5.939182 0.348634
5248.18 5248.18 2.150000 2.500576 75.2432 6.172782 0.371605
5258.11 5258.11 2.190000 2.485376 77.3702 6.444487 0.397139
5268.2 5268.2 2.230000 2.471279 79.2717 6.696640 0.418966
5278.47 5278.47 2.260000 2.456895 79.9517 6.851894 0.432733
5288.9 5288.9 2.300000 2.437251 82.8209 7.238649 0.462014
5299.51 5299.51 2.340000 2.417768 84.7257 7.550783 0.491069
5310.29 5310.29 2.380000 2.398696 86.5322 7.860235 0.520309
5321.24 5321.24 2.410000 2.377525 88.0158 8.166107 0.550027
5332.36 5332.36 2.450000 2.357848 89.817 8.498812 0.583915
5343.66 5343.66 2.490000 2.341725 91.9563 8.842674 0.620884
5355.12 5355.12 2.530000 2.326833 93.5888 9.134682 0.653052
5366.76 5366.76 2.560000 2.306142 95.9604 9.562007 0.692441
5378.57 5378.57 2.600000 2.284770 98.2686 10.0034 0.734828
5390.55 5390.55 2.640000 2.265385 100.671 10.4486 0.781487
5402.7 5402.7 2.680000 2.245473 103.155 10.9218 0.831418
5415.02 5415.02 2.710000 2.226142 105.295 11.366 0.881086
5427.52 5427.52 2.750000 2.205608 107.746 11.8718 0.937849
5440.18 5440.18 2.790000 2.186755 110.172 12.3703 0.996010
5453.02 5453.02 2.830000 2.168398 112.577 12.8744 1.054362
5466.03 5466.03 2.860000 2.149577 114.497 13.3426 1.110671
5479.21 5479.21 2.900000 2.129893 116.551 13.8521 1.172942
5492.56 5492.56 2.940000 2.109910 118.316 14.3457 1.236342
5506.08 5506.08 2.980000 2.089593 119.641 14.804 1.298094
5519.78 5519.78 3.010000 2.068358 120.128 15.1834 1.355239
5533.64 5533.64 3.050000 2.048950 120.699 15.5545 1.413538
5547.68 5547.68 3.090000 2.029858 120.886 15.8789 1.469733
5561.89 5561.89 3.130000 2.009480 121.197 16.2475 1.529972
5576.27 5576.27 3.160000 1.989613 120.966 16.5419 1.585489
5590.82 5590.82 3.200000 1.968665 121.178 16.9216 1.650435
5605.54 5605.54 3.240000 1.948106 121.669 17.3432 1.721578
5620.44 5620.44 3.280000 1.927404 122.478 17.8237 1.801103
5635.5 5635.5 3.310000 1.906529 122.426 18.1919 1.872270
5650.74 5650.74 3.350000 1.886748 123.864 18.7733 1.967595
5666.15 5666.15 3.390000 1.866443 126.076 19.5006 2.081385
5681.73 5681.73 3.430000 1.845802 128.487 20.288 2.203999
5697.48 5697.48 3.460000 1.825612 130.395 21.0091 2.323412
5713.4 5713.4 3.500000 1.805122 132.805 21.8403 2.458912
5729.5 5729.5 3.540000 1.784538 135.31 22.7151 2.603137
5745.77 5745.77 3.580000 1.763743 137.575 23.5807 2.751920
5762.2 5762.2 3.610000 1.743712 139.705 24.4302 2.902568
5778.81 5778.81 3.650000 1.723741 141.897 25.3141 3.062630
5795.59 5795.59 3.690000 1.703545 144.248 26.2584 3.234332
5812.54 5812.54 3.730000 1.683288 146.22 27.1623 3.405204
5818.23 5818.23 3.740000 1.676521 146.798 27.4546 3.462765