File: xdidata/Ti/Ti-K-CaZrTi2O7.xdi
# XDI/1.0 BlueSky/1.5.0
# Beamline.name: 6BM
# Beamline.xray_source: NSLS-II three-pole wiggler
# Beamline.collimation: paraboloid mirror, 5 nm Rh on 30 nm Pt
# Beamline.focusing: not in use
# Beamline.harmonic_rejection: flat mirror, Si stripe, pitch = 7.0 mrad relative to beam
# Detector.i0: 10 cm N2
# Detector.i1: 25 cm N2
# Detector.i2: 25 cm N2
# Element.symbol: Ti
# Element.edge: K
# Facility.name: NSLS-II
# Facility.energy: 3.0
# Facility.current: 220.1
# Facility.mode: top-off
# Facility.gup: 301027
# Facility.saf: 304156
# Mono.name: Si(111)
# Mono.d_spacing: 3.13526
# Mono.encoder_resolution: 0.0000050 deg/ct
# Mono.angle_offset: 16.0571 deg
# Mono.scan_mode: pseudo channel cut
# Mono.scan_type: step
# Mono.direction: forward in energy
# Sample.name: CaZrTi2O7 zirconolite
# Sample.prep: Powder in polyethylene glycol pellet
# Sample.x_position: -97.532 mm
# Sample.y_position: 117.543 mm
# Sample.wheel_position: -630.000 mm
# Scan.experimenters: Bruce Ravel, Martin Stennett
# Scan.edge_energy: 4966.0
# Scan.start_time: 2019-05-30T05:08:33
# Scan.end_time: 2019-05-30T05:51:23
# Scan.transient_id: 9794
# Scan.uid: 5f713530-4e03-4c88-95ea-5e8784320b5e
# Scan.plot_hint: ln(I0/It)  --  ln($5/$6)
# Scan.sequence: merge of 3 scans
# Column.1: energy eV
# Column.2: requested_energy eV
# Column.3: measurement_time seconds
# Column.4: mutrans
# Column.5: i0
# Column.6: itrans
# Column.7: irefer
# /////
#  sample disk prepared by Martin
# -----
# energy   requested_energy   measurement_time   mutrans   i0   itrans   irefer
4766 4766 0.500000 3.459294 11.0213 0.346646 0.027668
4796.01 4796 0.500000 3.388821 11.6649 0.393672 0.032515
4826.01 4826 0.500000 3.317664 12.3085 0.446032 0.038189
4856 4856 0.500000 3.247734 12.9793 0.504396 0.044921
4886 4886 0.500000 3.179326 13.63 0.567193 0.052652
4916 4916 0.500000 3.113275 14.2209 0.632188 0.060650
4938 4938 0.500000 3.065301 14.6482 0.683194 0.067631
4944 4944 0.500000 3.052432 14.7539 0.697033 0.069560
4950 4950 0.500000 3.039961 14.8534 0.710542 0.071196
4956 4956 0.500000 3.027320 14.9436 0.723949 0.072871
4956.74 4956.75 0.500000 3.025913 14.9494 0.725249 0.073007
4957.5 4957.5 0.500000 3.024310 14.9606 0.726959 0.073118
4958.24 4958.25 0.500000 3.022554 14.97 0.728689 0.073561
4958.99 4959 0.500000 3.021209 15.0065 0.731450 0.073570
4959.75 4959.75 0.500000 3.019914 15.0204 0.733079 0.073885
4960.5 4960.5 0.500000 3.018559 15.0323 0.734653 0.073907
4961.25 4961.25 0.500000 3.016893 15.0431 0.736409 0.073797
4962 4962 0.500000 3.015695 15.0583 0.738037 0.073830
4962.74 4962.75 0.500000 3.014007 15.0662 0.739669 0.073362
4963.5 4963.5 0.500000 3.012703 15.08 0.741315 0.072172
4964.25 4964.25 0.500000 3.011182 15.0935 0.743104 0.067916
4965 4965 0.500000 3.010334 15.1038 0.744244 0.054921
4965.75 4965.75 0.500000 3.010212 15.1173 0.745001 0.050603
4966.5 4966.5 0.500000 3.012491 15.1236 0.743623 0.056062
4967.25 4967.25 0.500000 3.021196 15.1328 0.737597 0.057682
4968 4968 0.500000 3.029057 15.1429 0.732338 0.055254
4968.75 4968.75 0.500000 3.035832 15.1705 0.728726 0.052479
4969.5 4969.5 0.500000 3.032465 15.1974 0.732463 0.050740
4970.25 4970.25 0.500000 3.026086 15.206 0.737570 0.050306
4971 4971 0.500000 3.020528 15.2399 0.743338 0.049858
4971.75 4971.75 0.500000 3.017676 15.2543 0.746162 0.048180
4972.5 4972.5 0.500000 3.020232 15.2699 0.745014 0.045441
4973.25 4973.25 0.500000 3.021351 15.2784 0.744600 0.042338
4974 4974 0.500000 3.022149 15.2797 0.744069 0.039984
4974.75 4974.75 0.500000 3.024820 15.32 0.744038 0.037891
4975.5 4975.5 0.500000 3.028547 15.3243 0.741482 0.035505
4976.25 4976.25 0.500000 3.032896 15.3208 0.738090 0.033631
4977 4977 0.500000 3.036569 15.3246 0.735575 0.031964
4977.75 4977.75 0.500000 3.043197 15.329 0.730921 0.030722
4978.5 4978.5 0.500000 3.053899 15.339 0.723619 0.029657
4979.25 4979.25 0.500000 3.063625 15.3351 0.716434 0.028915
4980 4980 0.500000 3.071920 15.3311 0.710313 0.028560
4980.75 4980.75 0.500000 3.084496 15.321 0.700998 0.028016
4981.5 4981.5 0.500000 3.105565 15.3217 0.686421 0.027150
4982.25 4982.25 0.500000 3.133124 15.3238 0.667828 0.026123
4983 4983 0.500000 3.160763 15.3295 0.649856 0.025548
4983.75 4983.75 0.500000 3.182842 15.3243 0.635457 0.024435
4984.5 4984.5 0.500000 3.194449 15.3234 0.628092 0.024730
4985.25 4985.25 0.500000 3.197203 15.3266 0.626500 0.024673
4986.01 4986 0.500000 3.193976 15.3245 0.628445 0.025241
4986.75 4986.75 0.500000 3.188861 15.3206 0.631485 0.025774
4987.5 4987.5 0.500000 3.182202 15.3181 0.635622 0.026269
4988.25 4988.25 0.500000 3.176126 15.3396 0.640375 0.026368
4989 4989 0.500000 3.171559 15.3865 0.645279 0.026605
4989.75 4989.75 0.500000 3.168815 15.4233 0.648603 0.026762
4990.5 4990.5 0.500000 3.166528 15.4575 0.651527 0.026934
4991.25 4991.25 0.500000 3.165112 15.494 0.653995 0.026884
4992 4992 0.500000 3.164695 15.5179 0.655280 0.027400
4992.75 4992.75 0.500000 3.165937 15.5401 0.655401 0.027397
4993.5 4993.5 0.500000 3.168383 15.5539 0.654374 0.027480
4994.25 4994.25 0.500000 3.171970 15.5676 0.652616 0.027096
4995 4995 0.500000 3.173728 15.5801 0.651988 0.026895
4995.75 4995.75 0.500000 3.173184 15.5988 0.653124 0.026512
4998.19 4998.18 0.730000 3.163716 22.7823 0.962969 0.037041
5001.59 5001.58 0.760000 3.154601 23.8724 1.018283 0.038680
5005.17 5005.16 0.800000 3.141101 25.301 1.093888 0.042568
5008.92 5008.91 0.840000 3.116054 26.7582 1.186227 0.049424
5012.84 5012.83 0.880000 3.088701 28.2089 1.285218 0.055345
5016.94 5016.93 0.910000 3.076781 29.3309 1.352372 0.059723
5021.2 5021.19 0.950000 3.066692 30.8252 1.435690 0.065038
5025.63 5025.63 0.990000 3.056214 32.4026 1.525044 0.068766
5030.25 5030.24 1.030000 3.049066 33.9209 1.607958 0.071259
5035.01 5035.01 1.060000 3.040087 35.128 1.680202 0.070209
5039.96 5039.97 1.100000 3.032313 36.6891 1.768552 0.072040
5045.09 5045.09 1.140000 3.028639 38.268 1.851464 0.077441
5050.38 5050.38 1.180000 3.024027 39.8775 1.938256 0.086591
5055.84 5055.84 1.210000 3.015997 41.1732 2.017356 0.094822
5061.48 5061.48 1.250000 3.007305 42.8385 2.117293 0.100762
5067.29 5067.29 1.290000 2.994840 44.5443 2.229208 0.108228
5073.27 5073.27 1.330000 2.982633 46.2718 2.344108 0.115079
5079.42 5079.42 1.360000 2.967110 47.6744 2.452926 0.117184
5085.74 5085.74 1.400000 2.951429 49.5643 2.590483 0.117779
5092.23 5092.23 1.440000 2.935709 51.385 2.728180 0.121909
5098.9 5098.9 1.480000 2.921095 53.2708 2.869962 0.137746
5105.74 5105.74 1.510000 2.906983 54.8214 2.995472 0.154044
5112.74 5112.74 1.550000 2.894452 56.7604 3.140521 0.162597
5119.92 5119.92 1.590000 2.882043 58.7473 3.291048 0.171608
5127.27 5127.27 1.630000 2.870790 60.8906 3.449687 0.182700
5134.79 5134.79 1.660000 2.858094 62.573 3.590324 0.191770
5142.49 5142.49 1.700000 2.844172 64.8167 3.771192 0.198512
5150.35 5150.35 1.740000 2.828821 66.9888 3.957845 0.206623
5158.39 5158.39 1.780000 2.813789 69.1679 4.148514 0.222523
5166.6 5166.6 1.810000 2.798491 70.968 4.322086 0.238807
5174.98 5174.98 1.850000 2.782666 73.1364 4.525204 0.258479
5183.53 5183.53 1.890000 2.766702 75.3779 4.738939 0.276718
5192.25 5192.25 1.930000 2.750606 77.613 4.958631 0.292563
5201.14 5201.14 1.960000 2.733643 79.4048 5.159898 0.306123
5210.21 5210.21 2.000000 2.716354 81.7399 5.404243 0.320487
5219.45 5219.45 2.040000 2.699517 84.0767 5.653137 0.340057
5228.85 5228.85 2.080000 2.683137 86.6683 5.923638 0.361910
5238.43 5238.43 2.110000 2.666870 88.7587 6.166015 0.384481
5248.18 5248.18 2.150000 2.650780 90.6545 6.399866 0.409436
5258.11 5258.11 2.190000 2.633400 93.7674 6.735678 0.439635
5268.2 5268.2 2.230000 2.615289 96.6654 7.070755 0.468442
5278.47 5278.47 2.260000 2.597109 97.9392 7.295362 0.487252
5288.9 5288.9 2.300000 2.579371 101.767 7.716139 0.520378
5299.51 5299.51 2.340000 2.561239 104.409 8.061267 0.552917
5310.29 5310.29 2.380000 2.543312 107.207 8.427098 0.587929
5321.24 5321.24 2.410000 2.524371 109.277 8.754062 0.621253
5332.36 5332.36 2.450000 2.507037 111.47 9.085847 0.656910
5343.66 5343.66 2.490000 2.487739 114.226 9.491882 0.701053
5355.12 5355.12 2.530000 2.469439 115.679 9.790189 0.735578
5366.76 5366.76 2.560000 2.449225 118.538 10.237 0.778743
5378.57 5378.57 2.600000 2.430664 120.685 10.6176 0.818726
5390.55 5390.55 2.640000 2.411368 123.007 11.0329 0.865383
5402.7 5402.7 2.680000 2.391799 124.872 11.4214 0.911586
5415.02 5415.02 2.710000 2.372116 126.43 11.7939 0.958099
5427.52 5427.52 2.750000 2.352499 128.507 12.225 1.011676
5440.18 5440.18 2.790000 2.332777 130.579 12.6695 1.067741
5453.02 5453.02 2.830000 2.313042 132.868 13.1486 1.126633
5466.03 5466.03 2.860000 2.292699 134.969 13.631 1.186728
5479.21 5479.21 2.900000 2.272774 137.741 14.1909 1.255844
5492.56 5492.56 2.940000 2.253100 140.579 14.771 1.329170
5506.08 5506.08 2.980000 2.233306 143.498 15.3792 1.407321
5519.78 5519.78 3.010000 2.213693 146.096 15.9677 1.485957
5533.64 5533.64 3.050000 2.193744 149.332 16.6503 1.577276
5547.68 5547.68 3.090000 2.173622 152.859 17.3899 1.675608
5561.89 5561.89 3.130000 2.153275 156.212 18.1367 1.777250
5576.27 5576.27 3.160000 2.133004 159.494 18.897 1.883722
5590.82 5590.82 3.200000 2.112868 163.203 19.7297 1.999917
5605.54 5605.54 3.240000 2.092723 166.444 20.531 2.116226
5620.44 5620.44 3.280000 2.072365 169.687 21.3615 2.240810
5635.5 5635.5 3.310000 2.052312 171.183 21.9862 2.347617
5650.74 5650.74 3.350000 2.031666 174.192 22.8395 2.482445
5666.15 5666.15 3.390000 2.011030 177.779 23.7959 2.630968
5681.73 5681.73 3.430000 1.990531 181.93 24.8558 2.796805
5697.48 5697.48 3.460000 1.970151 184.938 25.7869 2.952332
5708.08 5708.08 3.490000 1.956566 187.602 26.5162 3.072120