File: xdidata/Ti/Ti-K-Ce2Ti2O7.xdi
# XDI/1.0 BlueSky/1.5.0
# Beamline.name: 6BM
# Beamline.xray_source: NSLS-II three-pole wiggler
# Beamline.collimation: paraboloid mirror, 5 nm Rh on 30 nm Pt
# Beamline.focusing: not in use
# Beamline.harmonic_rejection: flat mirror, Si stripe, pitch = 7.0 mrad relative to beam
# Detector.i0: 10 cm N2
# Detector.i1: 25 cm N2
# Detector.i2: 25 cm N2
# Element.symbol: Ti
# Element.edge: K
# Facility.name: NSLS-II
# Facility.energy: 3.0
# Facility.current: 220.8
# Facility.mode: top-off
# Facility.gup: 301027
# Facility.saf: 304156
# Mono.name: Si(111)
# Mono.d_spacing: 3.13526
# Mono.encoder_resolution: 0.0000050 deg/ct
# Mono.angle_offset: 16.0571 deg
# Mono.scan_mode: pseudo channel cut
# Mono.scan_type: step
# Mono.direction: forward in energy
# Sample.name: Ce2Ti2O7
# Sample.prep: Powder in polyethylene glycol pellet
# Sample.x_position: -113.290 mm
# Sample.y_position: 117.505 mm
# Sample.wheel_position: 270.000 mm
# Scan.experimenters: Bruce Ravel, Martin Stennett
# Scan.edge_energy: 4966.0
# Scan.start_time: 2019-05-30T17:18:38
# Scan.end_time: 2019-05-30T18:02:14
# Scan.transient_id: 9843
# Scan.uid: 2b4b57ed-a9de-46fb-9814-9095f5ba7e96
# Scan.plot_hint: (DTC1 + DTC2 + DTC3 + DTC4) / I0  --  ($8+$9+$10+$11) / $5
# Scan.sequence: merge of 3 scans
# Column.1: energy eV
# Column.2: requested_energy eV
# Column.3: measurement_time seconds
# Column.4: mutrans
# Column.5: i0
# Column.6: itrans
# Column.7: irefer
# /////
#  sample disk prepared by Martin
# -----
# energy   requested_energy   measurement_time   mutrans   i0   itrans   irefer
4765.99 4766 0.500000 79.8578 10.4096 0.036491 0.005320
4796.01 4796 0.500000 69.9237 11.1421 0.042863 0.006218
4826 4826 0.500000 57.3872 11.9511 0.051585 0.007257
4856.01 4856 0.500000 47.8415 12.7443 0.061244 0.008462
4886 4886 0.500000 37.7736 13.5438 0.072737 0.009957
4916 4916 0.500000 31.1155 14.3433 0.085532 0.011682
4937.99 4938 0.500000 27.5169 14.9223 0.096164 0.013566
4944 4944 0.500000 25.3132 15.0628 0.098736 0.013597
4950 4950 0.500000 25.4865 15.1973 0.101540 0.013920
4956.01 4956 0.500000 27.8581 15.3313 0.104582 0.014457
4956.74 4956.75 0.500000 26.2025 15.3464 0.104760 0.014340
4957.49 4957.5 0.500000 26.9528 15.3523 0.105127 0.014491
4958.24 4958.25 0.500000 27.5216 15.3679 0.105479 0.014505
4959 4959 0.500000 28.1676 15.3838 0.105867 0.014509
4959.75 4959.75 0.500000 29.7726 15.3933 0.106247 0.014662
4960.5 4960.5 0.500000 28.3931 15.411 0.106721 0.014717
4961.25 4961.25 0.500000 30.9148 15.4246 0.106946 0.014763
4961.99 4962 0.500000 31.4991 15.4411 0.107183 0.014669
4962.75 4962.75 0.500000 31.8394 15.4534 0.107618 0.014707
4963.5 4963.5 0.500000 32.4728 15.4744 0.107730 0.014334
4964.25 4964.25 0.500000 36.2773 15.4876 0.108215 0.013776
4965 4965 0.500000 38.5703 15.5047 0.108780 0.011936
4965.75 4965.75 0.500000 41.8324 15.5181 0.108893 0.010602
4966.5 4966.5 0.500000 54.5372 15.5342 0.108504 0.011279
4967.25 4967.25 0.500000 92.8889 15.5425 0.107961 0.011736
4968 4968 0.500000 106.9 15.5617 0.107768 0.011669
4968.75 4968.75 0.500000 204.425 15.5728 0.104874 0.010978
4969.5 4969.5 0.500000 301.078 15.5819 0.101916 0.010393
4970.25 4970.25 0.500000 196.763 15.5901 0.105937 0.010535
4971 4971 0.500000 157.973 15.6455 0.107701 0.010352
4971.75 4971.75 0.500000 158.281 15.6745 0.107979 0.010096
4972.5 4972.5 0.500000 208.788 15.6851 0.106783 0.009678
4973.25 4973.25 0.500000 225.141 15.7014 0.106455 0.009092
4974 4974 0.500000 219.691 15.744 0.107446 0.008699
4974.75 4974.75 0.500000 205.299 15.754 0.108345 0.008339
4975.5 4975.5 0.500000 210.315 15.7576 0.108493 0.008051
4976.25 4976.25 0.500000 218.024 15.7557 0.108240 0.007740
4977 4977 0.500000 241.561 15.7947 0.108245 0.007416
4977.75 4977.75 0.500000 295.671 15.8038 0.106728 0.006909
4978.5 4978.5 0.500000 378.464 15.8128 0.104150 0.006824
4979.25 4979.25 0.500000 481.08 15.8177 0.101456 0.006653
4980 4980 0.500000 623.2 15.8128 0.097048 0.006265
4980.75 4980.75 0.500000 797.347 15.8083 0.092110 0.006021
4981.5 4981.5 0.500000 976.973 15.8056 0.087242 0.005807
4982.25 4982.25 0.500000 1130.05 15.8174 0.082864 0.005382
4983 4983 0.500000 1280.06 15.8222 0.079363 0.005324
4983.75 4983.75 0.500000 1384.47 15.8276 0.076861 0.005124
4984.5 4984.5 0.500000 1407.28 15.8238 0.076627 0.005317
4985.25 4985.25 0.500000 1361.65 15.8357 0.077845 0.005177
4986 4986 0.500000 1287.03 15.8401 0.080092 0.005580
4986.75 4986.75 0.500000 1225.36 15.8399 0.082218 0.005725
4987.5 4987.5 0.500000 1183.25 15.8315 0.083481 0.005972
4988.26 4988.25 0.500000 1143.78 15.845 0.084742 0.005877
4989 4989 0.500000 1125.24 15.8759 0.085343 0.005744
4989.75 4989.75 0.500000 1117.43 15.9168 0.085927 0.005806
4990.5 4990.5 0.500000 1122.67 15.9576 0.086455 0.005844
4991.25 4991.25 0.500000 1144.53 15.9991 0.086286 0.005804
4992 4992 0.500000 1182.16 16.0304 0.085635 0.005868
4992.75 4992.75 0.500000 1222.99 16.0602 0.085099 0.005758
4993.5 4993.5 0.500000 1268.98 16.0787 0.084243 0.006051
4994.25 4994.25 0.500000 1312.75 16.0963 0.083426 0.005756
4995 4995 0.500000 1340.04 16.1114 0.082806 0.005670
4995.75 4995.75 0.500000 1368.29 16.1741 0.082736 0.005598
4998.19 4998.18 0.730000 1368.35 23.5725 0.121890 0.007880
5001.59 5001.58 0.760000 1272.67 24.6525 0.132821 0.008798
5005.17 5005.16 0.800000 1198.52 26.1582 0.145919 0.009346
5008.92 5008.91 0.840000 1149.59 27.7465 0.159143 0.010666
5012.84 5012.83 0.880000 1056.33 29.2598 0.175487 0.011896
5016.93 5016.93 0.910000 1030.24 30.4933 0.187257 0.013110
5021.19 5021.19 0.950000 1048.31 32.0503 0.199175 0.014103
5025.64 5025.63 0.990000 1061.65 33.6099 0.211015 0.014889
5030.25 5030.24 1.030000 1052.93 35.2684 0.224874 0.015194
5035.02 5035.01 1.060000 1071.25 36.507 0.236332 0.015338
5039.98 5039.97 1.100000 1104.25 38.1146 0.248195 0.015555
5045.09 5045.09 1.140000 1107.6 39.7367 0.262783 0.016677
5050.38 5050.38 1.180000 1130.67 41.3638 0.276785 0.018547
5055.84 5055.84 1.210000 1167.02 42.6604 0.288182 0.020207
5061.48 5061.48 1.250000 1189.15 44.3448 0.303407 0.021303
5067.29 5067.29 1.290000 1196.71 46.0377 0.320435 0.022831
5073.27 5073.27 1.330000 1193.4 47.7453 0.339828 0.024568
5079.41 5079.42 1.360000 1181.99 49.069 0.358027 0.024862
5085.73 5085.74 1.400000 1149.14 50.7478 0.381443 0.025441
5092.23 5092.23 1.440000 1147.32 52.4217 0.403294 0.026512
5098.89 5098.9 1.480000 1147.67 54.1164 0.424824 0.029347
5105.74 5105.74 1.510000 1154.36 55.4485 0.444564 0.032392
5112.74 5112.74 1.550000 1162.9 57.1652 0.467726 0.034384
5119.92 5119.92 1.590000 1171.11 58.9066 0.492141 0.035779
5127.27 5127.27 1.630000 1181.74 60.6614 0.518891 0.038206
5134.79 5134.79 1.660000 1183.73 62.238 0.543998 0.040143
5142.49 5142.49 1.700000 1206.69 64.3531 0.574427 0.041972
5150.35 5150.35 1.740000 1216.05 66.2128 0.604177 0.043457
5158.39 5158.39 1.780000 1218.97 68.1113 0.636977 0.047155
5166.6 5166.6 1.810000 1229.89 69.6362 0.666959 0.050408
5174.98 5174.98 1.850000 1226.83 71.5651 0.704157 0.054577
5183.53 5183.53 1.890000 1229.3 73.532 0.742508 0.058392
5192.25 5192.25 1.930000 1234.89 75.5166 0.782797 0.062092
5201.14 5201.14 1.960000 1240.07 77.0726 0.820267 0.064949
5210.21 5210.21 2.000000 1253.12 79.1364 0.863861 0.068323
5219.45 5219.45 2.040000 1254.28 81.0924 0.908598 0.072211
5228.85 5228.85 2.080000 1267.65 83.0319 0.955618 0.076994
5238.43 5238.43 2.110000 1273.08 84.6374 1.000950 0.081916
5248.18 5248.18 2.150000 1283.57 86.1531 1.046202 0.087348
5258.11 5258.11 2.190000 1288.72 88.7087 1.106218 0.093674
5268.2 5268.2 2.230000 1305.66 90.9586 1.165507 0.099818
5278.47 5278.47 2.260000 1318.61 91.8115 1.208396 0.104126
5288.9 5288.9 2.300000 1329.03 95.9813 1.299604 0.112600
5299.51 5299.51 2.340000 1332.82 98.4071 1.372809 0.120745
5310.29 5310.29 2.380000 1331.52 100.906 1.450003 0.128788
5321.24 5321.24 2.410000 1346.21 102.746 1.520763 0.136708
5332.36 5332.36 2.450000 1356.15 104.94 1.599193 0.145848
5343.66 5343.66 2.490000 1367.6 107.227 1.681828 0.155799
5355.12 5355.12 2.530000 1381.2 108.466 1.751687 0.164937
5366.76 5366.76 2.560000 1393.44 111.266 1.851037 0.175976
5378.57 5378.57 2.600000 1400.65 113.056 1.940164 0.185991
5390.55 5390.55 2.640000 1408.26 114.75 2.029710 0.197622
5402.7 5402.7 2.680000 1418.38 115.969 2.113974 0.208398
5415.02 5415.02 2.710000 1428.3 116.282 2.184251 0.218666
5427.52 5427.52 2.750000 1452.57 116.953 2.261367 0.229466
5440.18 5440.18 2.790000 1465.51 117.739 2.346587 0.242169
5453.02 5453.02 2.830000 1475.68 118.448 2.434582 0.255232
5466.03 5466.03 2.860000 1484.2 118.868 2.519907 0.267267
5479.21 5479.21 2.900000 1499.38 119.984 2.623161 0.281936
5492.56 5492.56 2.940000 1516.2 121.301 2.733149 0.297921
5506.08 5506.08 2.980000 1529.67 123.079 2.859663 0.316238
5519.78 5519.78 3.010000 1551.26 124.763 2.988539 0.334886
5533.64 5533.64 3.050000 1568.1 127.229 3.142957 0.356515
5547.68 5547.68 3.090000 1577.53 129.698 3.306793 0.381470
5561.89 5561.89 3.130000 1594.8 132.494 3.485578 0.407516
5576.27 5576.27 3.160000 1607.29 135.273 3.672776 0.435291
5590.82 5590.82 3.200000 1628.75 138.22 3.872129 0.465323
5605.54 5605.54 3.240000 1643.75 141.733 4.097191 0.499229
5620.44 5620.44 3.280000 1661.81 144.453 4.310325 0.532980
5635.5 5635.5 3.310000 1676.44 145.686 4.487243 0.563337
5650.74 5650.74 3.350000 1691.07 147.903 4.701472 0.599971
5666.15 5666.15 3.390000 1705.71 150.465 4.938072 0.639514
5681.73 5681.73 3.430000 1725.39 153.523 5.194462 0.682464
5697.48 5697.48 3.460000 1751.14 155.53 5.408001 0.721481
5708.08 5708.08 3.490000 1776.72 157.124 5.517767 0.743945