File: xdidata/Ti/Ti-K-Rutile.xdi
# XDI/1.0 BlueSky/1.5.0
# Beamline.name: 6BM
# Beamline.xray_source: NSLS-II three-pole wiggler
# Beamline.collimation: paraboloid mirror, 5 nm Rh on 30 nm Pt
# Beamline.focusing: not in use
# Beamline.harmonic_rejection: flat mirror, Si stripe, pitch = 7.0 mrad relative to beam
# Detector.i0: 10 cm N2
# Detector.i1: 25 cm N2
# Detector.i2: 25 cm N2
# Element.symbol: Ti
# Element.edge: K
# Facility.name: NSLS-II
# Facility.energy: 3.0
# Facility.current: 220.0
# Facility.mode: top-off
# Facility.gup: 301027
# Facility.saf: 304156
# Mono.name: Si(111)
# Mono.d_spacing: 3.13526
# Mono.encoder_resolution: 0.0000050 deg/ct
# Mono.angle_offset: 16.0571 deg
# Mono.scan_mode: pseudo channel cut
# Mono.scan_type: step
# Mono.direction: forward in energy
# Sample.name: TiO2 rutile
# Sample.prep: Powder in polyethylene glycol pellet
# Sample.x_position: -97.532 mm
# Sample.y_position: 117.543 mm
# Sample.wheel_position: -435.000 mm
# Scan.experimenters: Bruce Ravel, Martin Stennett
# Scan.edge_energy: 4966.0
# Scan.start_time: 2019-05-29T19:44:03
# Scan.end_time: 2019-05-29T20:27:44
# Scan.transient_id: 9755
# Scan.uid: a441e553-4511-4c6f-a87d-f75b7327d180
# Scan.plot_hint: ln(I0/It)  --  ln($5/$6)
# Scan.sequence: merge of 3 scans
# Column.1: energy eV
# Column.2: requested_energy eV
# Column.3: measurement_time seconds
# Column.4: mutrans
# Column.5: i0
# Column.6: itrans
# Column.7: irefer
# /////
#  sample disk prepared by Martin
# -----
# energy   requested_energy   measurement_time   mutrans   i0   itrans   irefer
4765.98 4766 0.500000 3.821011 10.8308 0.237257 0.019936
4796.01 4796 0.500000 3.735676 11.5555 0.275682 0.023588
4826.01 4826 0.500000 3.653840 12.3071 0.318651 0.028177
4856.02 4856 0.500000 3.573838 13.0596 0.366298 0.033490
4886.01 4886 0.500000 3.495573 13.783 0.418059 0.039633
4916 4916 0.500000 3.420315 14.5056 0.474364 0.046549
4938 4938 0.500000 3.367342 15.011 0.517598 0.051950
4944.01 4944 0.500000 3.352566 15.1367 0.529703 0.053451
4950.01 4950 0.500000 3.338909 15.2504 0.541020 0.054985
4956.01 4956 0.500000 3.327290 15.3959 0.552561 0.056241
4956.74 4956.75 0.500000 3.325870 15.4059 0.553707 0.056397
4957.49 4957.5 0.500000 3.324342 15.4151 0.554882 0.056861
4958.24 4958.25 0.500000 3.323411 15.4263 0.555803 0.056835
4958.99 4959 0.500000 3.322033 15.4689 0.558106 0.057018
4959.74 4959.75 0.500000 3.320431 15.4817 0.559466 0.057171
4960.5 4960.5 0.500000 3.319644 15.5298 0.561646 0.057189
4961.24 4961.25 0.500000 3.318656 15.5448 0.562740 0.057025
4962 4962 0.500000 3.318094 15.5595 0.563591 0.056959
4962.75 4962.75 0.500000 3.317034 15.5751 0.564757 0.056880
4963.5 4963.5 0.500000 3.317054 15.5897 0.565274 0.055764
4964.25 4964.25 0.500000 3.317246 15.6044 0.565696 0.052239
4965 4965 0.500000 3.318277 15.6161 0.565541 0.042382
4965.75 4965.75 0.500000 3.321740 15.6302 0.564093 0.039405
4966.5 4966.5 0.500000 3.335272 15.6426 0.556951 0.042778
4967.25 4967.25 0.500000 3.370284 15.6515 0.538111 0.042681
4968 4968 0.500000 3.361388 15.6689 0.543461 0.041905
4968.75 4968.75 0.500000 3.415035 15.6838 0.515651 0.037896
4969.5 4969.5 0.500000 3.512015 15.6878 0.468047 0.033286
4970.25 4970.25 0.500000 3.545592 15.7045 0.453099 0.031775
4971 4971 0.500000 3.486500 15.7377 0.481542 0.033197
4971.75 4971.75 0.500000 3.452641 15.7599 0.498937 0.033152
4972.5 4972.5 0.500000 3.504626 15.7749 0.474173 0.029700
4973.25 4973.25 0.500000 3.516591 15.7869 0.468866 0.027842
4974 4974 0.500000 3.481619 15.7977 0.485903 0.026875
4974.75 4974.75 0.500000 3.455741 15.8045 0.498842 0.026206
4975.5 4975.5 0.500000 3.469329 15.8043 0.492104 0.024726
4976.25 4976.25 0.500000 3.531843 15.8068 0.462346 0.021903
4977 4977 0.500000 3.641972 15.8127 0.414453 0.018882
4977.75 4977.75 0.500000 3.800945 15.82 0.353427 0.016191
4978.5 4978.5 0.500000 4.000130 15.8316 0.290038 0.013225
4979.25 4979.25 0.500000 4.134673 15.8341 0.253473 0.011833
4980 4980 0.500000 4.156381 15.8266 0.247913 0.011514
4980.75 4980.75 0.500000 4.225951 15.8196 0.231158 0.010825
4981.5 4981.5 0.500000 4.353139 15.8182 0.203489 0.009364
4982.25 4982.25 0.500000 4.486712 15.8272 0.178189 0.008625
4983 4983 0.500000 4.638505 15.8338 0.153037 0.007454
4983.75 4983.75 0.500000 4.881101 15.8302 0.120178 0.006260
4984.5 4984.5 0.500000 5.164014 15.8382 0.090553 0.005529
4985.25 4985.25 0.500000 5.327062 15.8673 0.077089 0.005040
4986 4986 0.500000 5.305793 15.8708 0.078754 0.005022
4986.75 4986.75 0.500000 5.240644 15.8655 0.084042 0.005468
4987.5 4987.5 0.500000 5.237391 15.8663 0.084318 0.005133
4988.25 4988.25 0.500000 5.284148 15.9014 0.080640 0.005211
4989 4989 0.500000 5.361224 15.9765 0.075005 0.005289
4989.75 4989.75 0.500000 5.440784 16.0134 0.069452 0.004736
4990.5 4990.5 0.500000 5.486710 16.053 0.066483 0.004597
4991.25 4991.25 0.500000 5.456875 16.0849 0.068627 0.004927
4992 4992 0.500000 5.385074 16.1132 0.073852 0.004836
4992.75 4992.75 0.500000 5.303708 16.1328 0.080253 0.005117
4993.5 4993.5 0.500000 5.214780 16.1491 0.087757 0.005491
4994.25 4994.25 0.500000 5.123206 16.1636 0.096293 0.005871
4995 4995 0.500000 5.035476 16.1761 0.105195 0.006185
4995.75 4995.75 0.500000 4.985851 16.1868 0.110612 0.006218
4998.19 4998.18 0.730000 5.061958 23.6485 0.149762 0.008685
5001.59 5001.58 0.760000 5.266894 24.7251 0.127565 0.007859
5005.17 5005.16 0.800000 5.194661 26.2011 0.145334 0.008573
5008.92 5008.91 0.840000 4.885182 27.706 0.209420 0.011828
5012.84 5012.83 0.880000 4.642400 29.2 0.281332 0.015279
5016.94 5016.93 0.910000 4.682666 30.349 0.280855 0.015725
5021.19 5021.19 0.950000 4.649014 31.8642 0.304966 0.017182
5025.63 5025.63 0.990000 4.530990 33.3958 0.359663 0.019736
5030.25 5030.24 1.030000 4.543392 34.9384 0.371650 0.020216
5035.02 5035.01 1.060000 4.589103 36.1366 0.367221 0.019020
5039.97 5039.97 1.100000 4.708313 37.6979 0.340025 0.017796
5045.09 5045.09 1.140000 4.799711 39.262 0.323211 0.017748
5050.38 5050.38 1.180000 4.747628 40.8532 0.354290 0.020049
5055.84 5055.84 1.210000 4.712218 42.119 0.378438 0.022089
5061.48 5061.48 1.250000 4.692032 43.7711 0.401295 0.023494
5067.29 5067.29 1.290000 4.693840 45.5254 0.416634 0.024949
5073.27 5073.27 1.330000 4.625289 47.2837 0.463431 0.027566
5079.42 5079.42 1.360000 4.608814 48.7905 0.486126 0.028043
5085.74 5085.74 1.400000 4.610977 50.5368 0.502445 0.028081
5092.23 5092.23 1.440000 4.534254 52.3047 0.561482 0.030352
5098.9 5098.9 1.480000 4.445426 54.0747 0.634376 0.035638
5105.74 5105.74 1.510000 4.410692 55.4903 0.674026 0.039844
5112.74 5112.74 1.550000 4.395900 57.2951 0.706321 0.042043
5119.92 5119.92 1.590000 4.418713 59.1492 0.712733 0.043103
5127.27 5127.27 1.630000 4.442998 61.0648 0.718162 0.044034
5134.79 5134.79 1.660000 4.419159 62.6541 0.754618 0.046314
5142.49 5142.49 1.700000 4.401649 64.6512 0.792437 0.047767
5150.35 5150.35 1.740000 4.383869 66.6683 0.831819 0.049569
5158.39 5158.39 1.780000 4.333679 68.722 0.901566 0.054785
5166.6 5166.6 1.810000 4.291040 70.4061 0.963908 0.059722
5174.98 5174.98 1.850000 4.273188 72.4733 1.010087 0.064432
5183.53 5183.53 1.890000 4.247663 74.5913 1.066479 0.068968
5192.25 5192.25 1.930000 4.209647 76.7185 1.139399 0.074097
5201.14 5201.14 1.960000 4.178196 78.4926 1.202992 0.078282
5210.21 5210.21 2.000000 4.151168 80.8787 1.273523 0.082690
5219.45 5219.45 2.040000 4.121813 83.2691 1.350218 0.088442
5228.85 5228.85 2.080000 4.109201 85.4914 1.403847 0.093160
5238.43 5238.43 2.110000 4.090100 87.3818 1.462566 0.099335
5248.18 5248.18 2.150000 4.062162 89.1476 1.534392 0.106114
5258.11 5258.11 2.190000 4.034628 92.177 1.630814 0.114681
5268.2 5268.2 2.230000 4.003482 94.8063 1.730405 0.123044
5278.47 5278.47 2.260000 3.975172 96.0265 1.803006 0.128967
5288.9 5288.9 2.300000 3.950578 99.8073 1.920645 0.138290
5299.51 5299.51 2.340000 3.927961 102.426 2.016130 0.147694
5310.29 5310.29 2.380000 3.899573 105.257 2.131518 0.157293
5321.24 5321.24 2.410000 3.865036 107.366 2.250628 0.168874
5332.36 5332.36 2.450000 3.828527 109.985 2.391265 0.182368
5343.66 5343.66 2.490000 3.797228 112.609 2.526133 0.196135
5355.12 5355.12 2.530000 3.772431 114.901 2.642269 0.208006
5366.76 5366.76 2.560000 3.752721 117.588 2.757883 0.219363
5378.57 5378.57 2.600000 3.727471 119.445 2.873076 0.231175
5390.55 5390.55 2.640000 3.699160 121.261 3.000526 0.245153
5402.7 5402.7 2.680000 3.667952 122.823 3.135504 0.260345
5415.02 5415.02 2.710000 3.635620 123.463 3.255424 0.274904
5427.52 5427.52 2.750000 3.603819 124.501 3.388873 0.290937
5440.18 5440.18 2.790000 3.575119 125.599 3.518290 0.307409
5453.02 5453.02 2.830000 3.549330 126.989 3.650156 0.323913
5466.03 5466.03 2.860000 3.522277 128.177 3.785314 0.340826
5479.21 5479.21 2.900000 3.490907 130.403 3.973790 0.362767
5492.56 5492.56 2.940000 3.460015 132.961 4.178874 0.387562
5506.08 5506.08 2.980000 3.429561 135.373 4.386253 0.413079
5519.78 5519.78 3.010000 3.400949 137.967 4.600053 0.440653
5533.64 5533.64 3.050000 3.374233 140.9 4.825028 0.469446
5547.68 5547.68 3.090000 3.346976 143.928 5.064923 0.500665
5561.89 5561.89 3.130000 3.318901 147.018 5.320950 0.533759
5576.27 5576.27 3.160000 3.289555 149.624 5.576565 0.568426
5590.82 5590.82 3.200000 3.259660 152.822 5.868580 0.608006
5605.54 5605.54 3.240000 3.230764 155.833 6.159691 0.648074
5620.44 5620.44 3.280000 3.202061 158.831 6.460960 0.690676
5635.5 5635.5 3.310000 3.172721 160.019 6.703104 0.729398
5650.74 5650.74 3.350000 3.142177 163.402 7.057116 0.780680
5666.15 5666.15 3.390000 3.112841 166.517 7.405769 0.832602
5681.73 5681.73 3.430000 3.083843 170.519 7.806874 0.892268
5697.48 5697.48 3.460000 3.054837 172.964 8.151846 0.947364
5708.08 5708.08 3.490000 3.035329 174.899 8.405433 0.987291