File: xdidata/Ti/Ti-K-Ti2O3.xdi
# XDI/1.0 BlueSky/1.5.0
# Beamline.name: 6BM
# Beamline.xray_source: NSLS-II three-pole wiggler
# Beamline.collimation: paraboloid mirror, 5 nm Rh on 30 nm Pt
# Beamline.focusing: not in use
# Beamline.harmonic_rejection: flat mirror, Si stripe, pitch = 7.0 mrad relative to beam
# Detector.i0: 10 cm N2
# Detector.i1: 25 cm N2
# Detector.i2: 25 cm N2
# Element.symbol: Ti
# Element.edge: K
# Facility.name: NSLS-II
# Facility.energy: 3.0
# Facility.current: 220.4
# Facility.mode: top-off
# Facility.gup: 301027
# Facility.saf: 304156
# Mono.name: Si(111)
# Mono.d_spacing: 3.13526
# Mono.encoder_resolution: 0.0000050 deg/ct
# Mono.angle_offset: 16.0571 deg
# Mono.scan_mode: pseudo channel cut
# Mono.scan_type: step
# Mono.direction: forward in energy
# Sample.name: Ti2O3
# Sample.prep: Powder in polyethylene glycol pellet
# Sample.x_position: -97.532 mm
# Sample.y_position: 117.543 mm
# Sample.wheel_position: -705.000 mm
# Scan.experimenters: Bruce Ravel, Martin Stennett
# Scan.edge_energy: 4966.0
# Scan.start_time: 2019-05-30T08:45:18
# Scan.end_time: 2019-05-30T09:28:15
# Scan.transient_id: 9809
# Scan.uid: 15d7abe1-6ad8-486c-9140-32319bb7e3b8
# Scan.plot_hint: ln(I0/It)  --  ln($5/$6)
# Scan.sequence: merge of 3 scans
# Column.1: energy eV
# Column.2: requested_energy eV
# Column.3: measurement_time seconds
# Column.4: mutrans
# Column.5: i0
# Column.6: itrans
# Column.7: irefer
# /////
#  sample disk prepared by Martin
# -----
# energy   requested_energy   measurement_time   mutrans   i0   itrans   irefer
4766 4766 0.500000 4.131557 11.0069 0.176753 0.014995
4796.01 4796 0.500000 4.042536 11.6204 0.203972 0.017838
4826.01 4826 0.500000 3.956179 12.26 0.234609 0.021064
4856 4856 0.500000 3.872261 12.9227 0.268932 0.024653
4886.01 4886 0.500000 3.788973 13.5677 0.306889 0.029211
4916.01 4916 0.500000 3.709728 14.1596 0.346686 0.034125
4938 4938 0.500000 3.655236 14.5835 0.377064 0.038066
4944 4944 0.500000 3.641195 14.6889 0.385153 0.039188
4950.01 4950 0.500000 3.628564 14.7851 0.392610 0.040397
4956 4956 0.500000 3.619926 14.8792 0.398534 0.040862
4956.74 4956.75 0.500000 3.618418 14.8886 0.399386 0.041143
4957.49 4957.5 0.500000 3.617664 14.8978 0.399935 0.041183
4958.24 4958.25 0.500000 3.617186 14.9095 0.400443 0.041264
4959 4959 0.500000 3.616990 14.921 0.400826 0.041306
4959.75 4959.75 0.500000 3.616949 14.9298 0.401082 0.040908
4960.49 4960.5 0.500000 3.617048 14.9429 0.401394 0.041103
4961.25 4961.25 0.500000 3.617037 14.9525 0.401656 0.040981
4962 4962 0.500000 3.617707 14.9673 0.401785 0.040886
4962.74 4962.75 0.500000 3.620015 15.0146 0.402126 0.040499
4963.5 4963.5 0.500000 3.623342 15.0276 0.401134 0.039938
4964.25 4964.25 0.500000 3.629048 15.0363 0.399086 0.037347
4964.99 4965 0.500000 3.642703 15.0552 0.394190 0.030187
4965.75 4965.75 0.500000 3.688002 15.0885 0.377519 0.026471
4966.5 4966.5 0.500000 3.748959 15.0984 0.355443 0.027685
4967.25 4967.25 0.500000 3.805111 15.1022 0.336078 0.026977
4968 4968 0.500000 3.860122 15.1187 0.318462 0.025080
4968.75 4968.75 0.500000 3.893202 15.1275 0.308309 0.023270
4969.5 4969.5 0.500000 3.916331 15.1303 0.301309 0.022167
4970.25 4970.25 0.500000 3.926493 15.1438 0.298526 0.021255
4971 4971 0.500000 3.944305 15.1745 0.293839 0.020921
4971.75 4971.75 0.500000 3.980470 15.188 0.283624 0.019582
4972.5 4972.5 0.500000 4.041874 15.2051 0.267086 0.017643
4973.25 4973.25 0.500000 4.137553 15.2135 0.242835 0.015062
4974 4974 0.500000 4.269100 15.2562 0.213605 0.013063
4974.75 4974.75 0.500000 4.430360 15.2608 0.181693 0.010739
4975.5 4975.5 0.500000 4.590566 15.2615 0.154830 0.008882
4976.25 4976.25 0.500000 4.735317 15.2626 0.134000 0.007698
4977 4977 0.500000 4.868178 15.264 0.117316 0.006527
4977.75 4977.75 0.500000 4.984606 15.272 0.104551 0.005894
4978.5 4978.5 0.500000 5.087544 15.2815 0.094292 0.005391
4979.25 4979.25 0.500000 5.190977 15.2828 0.085090 0.004946
4980 4980 0.500000 5.304562 15.2812 0.075921 0.004687
4980.75 4980.75 0.500000 5.416946 15.2734 0.067825 0.004527
4981.5 4981.5 0.500000 5.516995 15.2725 0.061356 0.004122
4982.25 4982.25 0.500000 5.605832 15.2772 0.056165 0.003887
4983 4983 0.500000 5.681414 15.2842 0.052115 0.003698
4983.75 4983.75 0.500000 5.738747 15.281 0.049188 0.003751
4984.5 4984.5 0.500000 5.787636 15.2742 0.046820 0.003306
4985.25 4985.25 0.500000 5.812920 15.2824 0.045674 0.003754
4986 4986 0.500000 5.831698 15.2823 0.044825 0.003467
4986.75 4986.75 0.500000 5.818580 15.2805 0.045409 0.003659
4987.5 4987.5 0.500000 5.794258 15.2763 0.046514 0.003880
4988.25 4988.25 0.500000 5.761008 15.2867 0.048121 0.003867
4989 4989 0.500000 5.724113 15.3107 0.050009 0.003869
4989.75 4989.75 0.500000 5.683032 15.348 0.052236 0.003957
4990.5 4990.5 0.500000 5.636516 15.3816 0.054838 0.004109
4991.25 4991.25 0.500000 5.593787 15.4448 0.057471 0.004022
4992 4992 0.500000 5.563464 15.4689 0.059331 0.004099
4992.75 4992.75 0.500000 5.533105 15.4898 0.061243 0.004252
4993.51 4993.5 0.500000 5.520938 15.5048 0.062062 0.004387
4994.25 4994.25 0.500000 5.516449 15.5504 0.062515 0.004256
4995 4995 0.500000 5.526873 15.5655 0.061930 0.004231
4995.75 4995.75 0.500000 5.543769 15.5882 0.060975 0.004257
4998.18 4998.18 0.730000 5.621150 22.7443 0.082358 0.005723
5001.58 5001.58 0.760000 5.560337 23.7758 0.091471 0.006105
5005.16 5005.16 0.800000 5.387426 25.2027 0.115266 0.007287
5008.91 5008.91 0.840000 5.278634 26.6459 0.135871 0.008442
5012.83 5012.83 0.880000 5.223018 28.0791 0.151374 0.009383
5016.94 5016.93 0.910000 5.225652 29.2009 0.157008 0.010075
5021.19 5021.19 0.950000 5.197149 30.733 0.170021 0.010777
5025.63 5025.63 0.990000 5.211448 32.2305 0.175782 0.011307
5030.24 5030.24 1.030000 5.264913 33.7454 0.174461 0.011475
5035.01 5035.01 1.060000 5.323939 34.9346 0.170257 0.010605
5039.97 5039.97 1.100000 5.355518 36.4872 0.172296 0.010800
5045.09 5045.09 1.140000 5.337834 38.0607 0.182939 0.011249
5050.38 5050.38 1.180000 5.307390 39.6616 0.196520 0.012913
5055.84 5055.84 1.210000 5.281611 40.9534 0.208217 0.013943
5061.47 5061.48 1.250000 5.238590 42.6131 0.226178 0.015264
5067.28 5067.29 1.290000 5.195619 44.3026 0.245469 0.016328
5073.27 5073.27 1.330000 5.181033 46.0253 0.258762 0.017014
5079.42 5079.42 1.360000 5.163913 47.5163 0.271762 0.017704
5085.74 5085.74 1.400000 5.124447 49.2823 0.293198 0.018296
5092.23 5092.23 1.440000 5.082565 51.098 0.317010 0.018924
5098.9 5098.9 1.480000 5.056789 52.9642 0.337171 0.020877
5105.74 5105.74 1.510000 5.048769 54.5243 0.349895 0.023231
5112.74 5112.74 1.550000 5.056344 56.5159 0.359939 0.023580
5119.92 5119.92 1.590000 5.050405 58.4693 0.374598 0.024833
5127.27 5127.27 1.630000 5.047147 60.4612 0.388624 0.026105
5134.79 5134.79 1.660000 5.033446 62.1363 0.404897 0.026913
5142.49 5142.49 1.700000 4.994873 64.2404 0.435076 0.028352
5150.35 5150.35 1.740000 4.961051 66.5158 0.465976 0.030285
5158.39 5158.39 1.780000 4.926937 68.684 0.497865 0.032640
5166.6 5166.6 1.810000 4.887352 70.4649 0.531403 0.035448
5174.98 5174.98 1.850000 4.854617 72.6377 0.566016 0.038612
5183.53 5183.53 1.890000 4.832213 74.8787 0.596697 0.041490
5192.25 5192.25 1.930000 4.822439 77.0997 0.620429 0.042858
5201.14 5201.14 1.960000 4.813043 78.9014 0.640922 0.044497
5210.21 5210.21 2.000000 4.788429 81.301 0.676873 0.046825
5219.45 5219.45 2.040000 4.766288 83.749 0.712865 0.049342
5228.85 5228.85 2.080000 4.744429 86.1766 0.749737 0.052600
5238.43 5238.43 2.110000 4.711728 88.2593 0.793381 0.056527
5248.18 5248.18 2.150000 4.679366 90.161 0.837136 0.060701
5258.11 5258.11 2.190000 4.654345 93.449 0.889650 0.065259
5268.2 5268.2 2.230000 4.635942 96.1457 0.932322 0.069171
5278.47 5278.47 2.260000 4.611034 97.308 0.967390 0.071962
5288.9 5288.9 2.300000 4.580649 101.112 1.036229 0.077389
5299.51 5299.51 2.340000 4.551835 103.977 1.096728 0.082812
5310.29 5310.29 2.380000 4.522492 106.75 1.159506 0.088772
5321.24 5321.24 2.410000 4.497106 108.818 1.212370 0.094016
5332.36 5332.36 2.450000 4.471735 111.021 1.268694 0.099574
5343.66 5343.66 2.490000 4.444863 113.759 1.335394 0.106595
5355.12 5355.12 2.530000 4.418213 115.189 1.388700 0.112671
5366.76 5366.76 2.560000 4.395972 118.391 1.459396 0.118973
5378.57 5378.57 2.600000 4.367502 120.606 1.529639 0.126245
5390.55 5390.55 2.640000 4.337066 122.74 1.604810 0.134637
5402.7 5402.7 2.680000 4.309722 124.71 1.675767 0.142294
5415.02 5415.02 2.710000 4.280417 126.565 1.751274 0.150932
5427.52 5427.52 2.750000 4.249309 128.379 1.832500 0.160381
5440.18 5440.18 2.790000 4.221067 130.52 1.916417 0.170090
5453.02 5453.02 2.830000 4.192897 133.095 2.010069 0.181261
5466.03 5466.03 2.860000 4.168865 135.148 2.090722 0.191053
5479.21 5479.21 2.900000 4.142472 137.894 2.190251 0.203025
5492.56 5492.56 2.940000 4.113707 140.723 2.300408 0.216172
5506.08 5506.08 2.980000 4.084068 143.616 2.418310 0.230546
5519.78 5519.78 3.010000 4.056006 146.54 2.537791 0.245948
5533.64 5533.64 3.050000 4.028935 149.854 2.666399 0.262135
5547.68 5547.68 3.090000 4.001741 153.114 2.799492 0.279602
5561.89 5561.89 3.130000 3.973900 156.516 2.942501 0.297910
5576.27 5576.27 3.160000 3.945709 159.749 3.089145 0.317230
5590.82 5590.82 3.200000 3.916695 163.591 3.256567 0.339779
5605.54 5605.54 3.240000 3.887465 166.869 3.420361 0.362645
5620.44 5620.44 3.280000 3.859654 170.134 3.585626 0.386194
5635.5 5635.5 3.310000 3.833742 171.711 3.713842 0.406583
5650.74 5650.74 3.350000 3.806944 174.806 3.883479 0.431673
5666.15 5666.15 3.390000 3.778429 178.465 4.079438 0.460795
5681.73 5681.73 3.430000 3.750715 183.1 4.303018 0.494527
5697.48 5697.48 3.460000 3.722335 186.121 4.499939 0.525507
5708.08 5708.08 3.490000 3.703038 188.543 4.647289 0.549043