File: xdidata/Ti/Ti-K-BFTO16.xdi
# XDI/1.0 BlueSky/1.5.0
# Beamline.name: 6BM
# Beamline.xray_source: NSLS-II three-pole wiggler
# Beamline.collimation: paraboloid mirror, 5 nm Rh on 30 nm Pt
# Beamline.focusing: not in use
# Beamline.harmonic_rejection: flat mirror, Si stripe, pitch = 7.0 mrad relative to beam
# Detector.i0: 10 cm N2
# Detector.i1: 25 cm N2
# Detector.i2: 25 cm N2
# Element.symbol: Ti
# Element.edge: K
# Facility.name: NSLS-II
# Facility.energy: 3.0
# Facility.current: 221.0
# Facility.mode: top-off
# Facility.gup: 301027
# Facility.saf: 304156
# Mono.name: Si(111)
# Mono.d_spacing: 3.13526
# Mono.encoder_resolution: 0.0000050 deg/ct
# Mono.angle_offset: 16.0571 deg
# Mono.scan_mode: pseudo channel cut
# Mono.scan_type: step
# Mono.direction: forward in energy
# Sample.name: Ba1.2 Fe2.4 Ti 5.6 O16
# Sample.prep: Powder in polyethylene glycol pellet
# Sample.x_position: -97.532 mm
# Sample.y_position: 117.543 mm
# Sample.wheel_position: -570.000 mm
# Scan.experimenters: Bruce Ravel, Martin Stennett
# Scan.edge_energy: 4966.0
# Scan.start_time: 2019-05-30T02:14:49
# Scan.end_time: 2019-05-30T02:57:38
# Scan.transient_id: 9782
# Scan.uid: 429a122b-c2cd-40ff-a640-542bce673ec1
# Scan.plot_hint: ln(I0/It)  --  ln($5/$6)
# Scan.sequence: merge of 3 scans
# Column.1: energy eV
# Column.2: requested_energy eV
# Column.3: measurement_time seconds
# Column.4: mutrans
# Column.5: i0
# Column.6: itrans
# Column.7: irefer
# /////
#  sample disk prepared by Martin
# -----
# energy   requested_energy   measurement_time   mutrans   i0   itrans   irefer
4766 4766 0.500000 3.766666 11.0098 0.254652 0.020499
4796.01 4796 0.500000 3.685896 11.675 0.292747 0.024954
4826.01 4826 0.500000 3.607934 12.3458 0.334656 0.029414
4856 4856 0.500000 3.530936 13.0363 0.381664 0.034660
4886 4886 0.500000 3.456048 13.7276 0.433165 0.040433
4916 4916 0.500000 3.382308 14.346 0.487320 0.047692
4938 4938 0.500000 3.329600 14.786 0.529450 0.052964
4944.01 4944 0.500000 3.316221 14.894 0.540502 0.054463
4950.01 4950 0.500000 3.302592 14.9904 0.551464 0.055829
4956 4956 0.500000 3.289220 15.0814 0.562280 0.057045
4956.74 4956.75 0.500000 3.287581 15.0913 0.563570 0.057230
4957.49 4957.5 0.500000 3.285701 15.098 0.564883 0.057269
4958.24 4958.25 0.500000 3.284600 15.1064 0.565819 0.057424
4959 4959 0.500000 3.283105 15.1196 0.567159 0.057636
4959.75 4959.75 0.500000 3.281379 15.162 0.569732 0.058109
4960.5 4960.5 0.500000 3.280370 15.1751 0.570802 0.058102
4961.25 4961.25 0.500000 3.278413 15.188 0.572408 0.058265
4962 4962 0.500000 3.277446 15.2008 0.573441 0.058085
4962.74 4962.75 0.500000 3.276641 15.2125 0.574346 0.057425
4963.5 4963.5 0.500000 3.275069 15.2252 0.575730 0.056550
4964.25 4964.25 0.500000 3.274471 15.2408 0.576666 0.052653
4965 4965 0.500000 3.274334 15.2544 0.577258 0.042671
4965.75 4965.75 0.500000 3.274948 15.2644 0.577286 0.040124
4966.5 4966.5 0.500000 3.282713 15.2775 0.573323 0.044129
4967.25 4967.25 0.500000 3.300045 15.2821 0.563628 0.044580
4968 4968 0.500000 3.293323 15.2994 0.568068 0.043501
4968.75 4968.75 0.500000 3.320980 15.308 0.552894 0.040061
4969.5 4969.5 0.500000 3.362654 15.31 0.530428 0.037441
4970.25 4970.25 0.500000 3.356197 15.3219 0.534215 0.036856
4971 4971 0.500000 3.328819 15.351 0.550121 0.037413
4971.75 4971.75 0.500000 3.314276 15.3712 0.558901 0.036526
4972.5 4972.5 0.500000 3.325561 15.4135 0.554131 0.034049
4973.25 4973.25 0.500000 3.329556 15.4227 0.552268 0.031691
4974 4974 0.500000 3.327692 15.4288 0.553525 0.029990
4974.75 4974.75 0.500000 3.336928 15.4331 0.548580 0.028211
4975.5 4975.5 0.500000 3.353716 15.4339 0.539486 0.026571
4976.25 4976.25 0.500000 3.377998 15.4319 0.526478 0.024589
4977 4977 0.500000 3.416858 15.4317 0.506399 0.022655
4977.75 4977.75 0.500000 3.471790 15.4365 0.479517 0.020887
4978.5 4978.5 0.500000 3.532472 15.4422 0.451377 0.019407
4979.25 4979.25 0.500000 3.577176 15.4431 0.431735 0.018149
4980 4980 0.500000 3.615123 15.4707 0.416318 0.017787
4980.75 4980.75 0.500000 3.651667 15.4583 0.401131 0.016966
4981.5 4981.5 0.500000 3.697173 15.4569 0.383228 0.016140
4982.25 4982.25 0.500000 3.757981 15.4637 0.360735 0.015052
4983 4983 0.500000 3.815487 15.4678 0.340726 0.014353
4983.75 4983.75 0.500000 3.862333 15.4631 0.325043 0.013621
4984.5 4984.5 0.500000 3.902377 15.4614 0.312271 0.013413
4985.25 4985.25 0.500000 3.942951 15.4617 0.299806 0.013036
4986 4986 0.500000 3.980390 15.4612 0.288754 0.012812
4986.75 4986.75 0.500000 4.012466 15.456 0.279605 0.012552
4987.5 4987.5 0.500000 4.033867 15.4499 0.273548 0.012423
4988.25 4988.25 0.500000 4.044777 15.4669 0.270887 0.012490
4989 4989 0.500000 4.050598 15.5241 0.270303 0.012181
4989.75 4989.75 0.500000 4.050269 15.5579 0.270984 0.012222
4990.5 4990.5 0.500000 4.033800 15.5991 0.276199 0.012810
4991.25 4991.25 0.500000 4.003076 15.6257 0.285331 0.013146
4992 4992 0.500000 3.963391 15.6548 0.297384 0.013740
4992.75 4992.75 0.500000 3.927844 15.6725 0.308548 0.014100
4993.5 4993.5 0.500000 3.899877 15.687 0.317593 0.014375
4994.25 4994.25 0.500000 3.882212 15.7005 0.323494 0.014408
4995 4995 0.500000 3.876130 15.7103 0.325688 0.014475
4995.75 4995.75 0.500000 3.880405 15.7185 0.324473 0.013968
4998.18 4998.18 0.730000 3.919672 22.9604 0.455725 0.019157
5001.58 5001.58 0.760000 3.970845 23.9991 0.452577 0.018821
5005.16 5005.16 0.800000 3.902758 25.4251 0.513196 0.021558
5008.91 5008.91 0.840000 3.812209 26.881 0.594029 0.026338
5012.83 5012.83 0.880000 3.737651 28.3272 0.674454 0.030727
5016.94 5016.93 0.910000 3.728567 29.5097 0.709041 0.033257
5021.2 5021.19 0.950000 3.703729 30.9872 0.763276 0.036342
5025.64 5025.63 0.990000 3.674699 32.4828 0.823668 0.039222
5030.24 5030.24 1.030000 3.673139 33.9897 0.863236 0.040453
5035.01 5035.01 1.060000 3.696156 35.1865 0.873276 0.038837
5039.97 5039.97 1.100000 3.723576 36.7382 0.887136 0.038524
5045.09 5045.09 1.140000 3.721439 38.3188 0.927282 0.041281
5050.38 5050.38 1.180000 3.700764 39.9825 0.987762 0.046777
5055.84 5055.84 1.210000 3.683769 41.2582 1.036740 0.051303
5061.48 5061.48 1.250000 3.676669 42.9165 1.086092 0.053951
5067.29 5067.29 1.290000 3.664207 44.6142 1.143208 0.058368
5073.27 5073.27 1.330000 3.646078 46.3315 1.208938 0.062029
5079.42 5079.42 1.360000 3.626827 47.8368 1.272477 0.063823
5085.74 5085.74 1.400000 3.608585 49.6161 1.344099 0.064324
5092.23 5092.23 1.440000 3.577293 51.4412 1.437834 0.067484
5098.9 5098.9 1.480000 3.542191 53.3182 1.543576 0.077271
5105.74 5105.74 1.510000 3.516577 54.8472 1.629013 0.086260
5112.74 5112.74 1.550000 3.505731 56.749 1.703878 0.091337
5119.92 5119.92 1.590000 3.500706 58.683 1.770826 0.095226
5127.27 5127.27 1.630000 3.496485 60.6625 1.838297 0.100848
5134.79 5134.79 1.660000 3.486529 62.3404 1.908062 0.105328
5142.49 5142.49 1.700000 3.473260 64.4555 1.999144 0.108850
5150.35 5150.35 1.740000 3.450199 66.7369 2.118169 0.113994
5158.39 5158.39 1.780000 3.420958 68.913 2.252175 0.124530
5166.6 5166.6 1.810000 3.395492 70.7121 2.370562 0.134945
5174.98 5174.98 1.850000 3.376199 72.8907 2.491204 0.146285
5183.53 5183.53 1.890000 3.358881 75.2756 2.617652 0.156642
5192.25 5192.25 1.930000 3.340148 77.5228 2.746768 0.165858
5201.14 5201.14 1.960000 3.322069 79.3213 2.861759 0.173640
5210.21 5210.21 2.000000 3.301462 81.6234 3.006139 0.181999
5219.45 5219.45 2.040000 3.278902 84.1403 3.169524 0.194586
5228.85 5228.85 2.080000 3.261240 86.5507 3.318425 0.207229
5238.43 5238.43 2.110000 3.252042 88.6225 3.429250 0.217624
5248.18 5248.18 2.150000 3.645835 90.5092 2.362549 0.156828
5258.11 5258.11 2.190000 3.375184 93.6784 3.204908 0.214887
5268.2 5268.2 2.230000 3.375949 96.4086 3.295794 0.223651
5278.47 5278.47 2.260000 3.350408 97.7152 3.426861 0.234151
5288.9 5288.9 2.300000 3.322052 101.45 3.660183 0.252743
5299.51 5299.51 2.340000 3.301383 104.42 3.846002 0.269379
5310.29 5310.29 2.380000 3.281049 107.289 4.032865 0.287151
5321.24 5321.24 2.410000 3.258057 109.448 4.209722 0.304571
5332.36 5332.36 2.450000 3.231803 111.766 4.413219 0.325069
5343.66 5343.66 2.490000 3.213594 114.834 4.617664 0.346718
5355.12 5355.12 2.530000 3.195138 116.451 4.769956 0.364373
5366.76 5366.76 2.560000 3.170871 119.609 5.019660 0.388161
5378.57 5378.57 2.600000 3.149915 121.777 5.218869 0.408531
5390.55 5390.55 2.640000 3.125380 123.753 5.435271 0.432716
5402.7 5402.7 2.680000 3.100454 125.564 5.654003 0.457475
5415.02 5415.02 2.710000 3.077424 126.779 5.841706 0.481252
5427.52 5427.52 2.750000 3.056281 128.278 6.037044 0.506677
5440.18 5440.18 2.790000 3.032339 130.436 6.287359 0.536549
5453.02 5453.02 2.830000 3.009636 132.537 6.535326 0.566326
5466.03 5466.03 2.860000 2.986442 134.49 6.787234 0.598026
5479.21 5479.21 2.900000 2.962819 137.141 7.086475 0.633981
5492.56 5492.56 2.940000 2.938548 139.906 7.406959 0.673271
5506.08 5506.08 2.980000 2.913971 143.1 7.764593 0.717204
5519.78 5519.78 3.010000 2.890006 145.906 8.108838 0.761941
5533.64 5533.64 3.050000 2.866875 149.227 8.487478 0.811586
5547.68 5547.68 3.090000 2.843286 152.465 8.878601 0.862980
5561.89 5561.89 3.130000 2.819446 155.784 9.290784 0.918014
5576.27 5576.27 3.160000 2.794817 158.521 9.689747 0.973649
5590.82 5590.82 3.200000 2.769963 161.831 10.141 1.035685
5605.54 5605.54 3.240000 2.745824 165.424 10.6195 1.103041
5620.44 5620.44 3.280000 2.744926 168.623 10.834 1.144276
5635.5 5635.5 3.310000 2.783359 170.011 10.5118 1.131172
5650.74 5650.74 3.350000 2.771292 173.401 10.8517 1.188922
5666.15 5666.15 3.390000 2.738132 177.333 11.4719 1.278209
5681.73 5681.73 3.430000 2.715752 181.435 12.0029 1.359847
5697.48 5697.48 3.460000 2.691779 184.21 12.4822 1.438562
5708.08 5708.08 3.490000 2.673178 186.488 12.8738 1.500695