File: xdidata/Ti/Ti-K-CaCe2Ti4O12.xdi
# XDI/1.0 BlueSky/1.5.0
# Beamline.name: 6BM
# Beamline.xray_source: NSLS-II three-pole wiggler
# Beamline.collimation: paraboloid mirror, 5 nm Rh on 30 nm Pt
# Beamline.focusing: not in use
# Beamline.harmonic_rejection: flat mirror, Si stripe, pitch = 7.0 mrad relative to beam
# Detector.i0: 10 cm N2
# Detector.i1: 25 cm N2
# Detector.i2: 25 cm N2
# Element.symbol: Ti
# Element.edge: K
# Facility.name: NSLS-II
# Facility.energy: 3.0
# Facility.current: 219.4
# Facility.mode: top-off
# Facility.gup: 301027
# Facility.saf: 304156
# Mono.name: Si(111)
# Mono.d_spacing: 3.13526
# Mono.encoder_resolution: 0.0000050 deg/ct
# Mono.angle_offset: 16.0571 deg
# Mono.scan_mode: pseudo channel cut
# Mono.scan_type: step
# Mono.direction: forward in energy
# Sample.name: CaCe2Ti4O12
# Sample.prep: Powder in polyethylene glycol pellet
# Sample.x_position: -113.290 mm
# Sample.y_position: 117.505 mm
# Sample.wheel_position: 225.000 mm
# Scan.experimenters: Bruce Ravel, Martin Stennett
# Scan.edge_energy: 4966.0
# Scan.start_time: 2019-05-30T19:31:03
# Scan.end_time: 2019-05-30T20:15:10
# Scan.transient_id: 9852
# Scan.uid: b8f09ba5-23aa-449f-920b-bdfdb9eaf65b
# Scan.plot_hint: (DTC1 + DTC2 + DTC3 + DTC4) / I0  --  ($8+$9+$10+$11) / $5
# Scan.sequence: merge of 3 scans
# Column.1: energy eV
# Column.2: requested_energy eV
# Column.3: measurement_time seconds
# Column.4: mutrans
# Column.5: i0
# Column.6: itrans
# Column.7: irefer
# /////
#  sample disk prepared by Martin
# -----
# energy   requested_energy   measurement_time   mutrans   i0   itrans   irefer
4766 4766 0.500000 76.0925 10.5498 0.037192 0.005294
4796.01 4796 0.500000 69.4613 11.3429 0.043405 0.006049
4826.01 4826 0.500000 59.1984 12.1341 0.051998 0.006986
4856 4856 0.500000 48.4732 12.9086 0.062151 0.008264
4886 4886 0.500000 40.725 13.7269 0.073761 0.010079
4916.01 4916 0.500000 33.7678 14.5336 0.086776 0.011751
4938 4938 0.500000 31.4752 15.0992 0.097468 0.013502
4944 4944 0.500000 30.396 15.2452 0.100349 0.013898
4950 4950 0.500000 30.0246 15.3738 0.103220 0.014064
4956 4956 0.500000 33.7753 15.5064 0.106142 0.014567
4956.74 4956.75 0.500000 33.9393 15.5208 0.106720 0.014840
4957.49 4957.5 0.500000 34.1788 15.5301 0.106773 0.014646
4958.24 4958.25 0.500000 36.1015 15.5441 0.107363 0.014941
4958.99 4959 0.500000 34.5445 15.56 0.107814 0.014957
4959.74 4959.75 0.500000 35.8296 15.5727 0.108059 0.014823
4960.5 4960.5 0.500000 35.9313 15.5877 0.108086 0.014919
4961.24 4961.25 0.500000 37.2965 15.6043 0.108791 0.015056
4962 4962 0.500000 37.7922 15.6206 0.108870 0.014879
4962.75 4962.75 0.500000 40.1004 15.6319 0.109041 0.014851
4963.49 4963.5 0.500000 41.9306 15.6505 0.109639 0.014860
4964.25 4964.25 0.500000 45.4687 15.6642 0.109905 0.014005
4965 4965 0.500000 49.3318 15.6825 0.110264 0.011885
4965.74 4965.75 0.500000 56.2226 15.6918 0.110181 0.010687
4966.5 4966.5 0.500000 72.307 15.7119 0.110054 0.011472
4967.25 4967.25 0.500000 122.593 15.7196 0.108782 0.011955
4968 4968 0.500000 127.385 15.7362 0.108870 0.011551
4968.75 4968.75 0.500000 175.119 15.7513 0.107637 0.011107
4969.5 4969.5 0.500000 267.008 15.7541 0.104620 0.010334
4970.25 4970.25 0.500000 240.296 15.7659 0.105895 0.010293
4971 4971 0.500000 226.497 15.8018 0.107245 0.010538
4971.75 4971.75 0.500000 237.852 15.8266 0.107020 0.010117
4972.5 4972.5 0.500000 304.379 15.8405 0.104979 0.009425
4973.25 4973.25 0.500000 346.488 15.8526 0.104142 0.008787
4974 4974 0.500000 329.658 15.8953 0.105033 0.008431
4974.75 4974.75 0.500000 305.989 15.908 0.106457 0.008074
4975.5 4975.5 0.500000 284.91 15.9097 0.107323 0.007776
4976.25 4976.25 0.500000 290.193 15.945 0.107977 0.007478
4977 4977 0.500000 308.338 15.9485 0.107264 0.007137
4977.75 4977.75 0.500000 375.074 15.9531 0.105303 0.007050
4978.5 4978.5 0.500000 485.772 15.9687 0.102037 0.006581
4979.25 4979.25 0.500000 623.37 16.0167 0.098186 0.006481
4980 4980 0.500000 775.73 16.0124 0.093516 0.006043
4980.75 4980.75 0.500000 975.41 16.0066 0.087398 0.005577
4981.5 4981.5 0.500000 1263.63 16.0071 0.079647 0.005372
4982.25 4982.25 0.500000 1596.75 16.0145 0.070876 0.004763
4983 4983 0.500000 1905.71 16.0227 0.063859 0.004626
4983.75 4983.75 0.500000 2050.63 16.0248 0.060159 0.004440
4984.5 4984.5 0.500000 2064.99 16.023 0.060750 0.004483
4985.25 4985.25 0.500000 1933.2 16.0309 0.063633 0.004806
4986 4986 0.500000 1842.34 16.0356 0.066452 0.004935
4986.75 4986.75 0.500000 1744.73 16.0355 0.068676 0.004894
4987.5 4987.5 0.500000 1689.25 16.0291 0.070169 0.005186
4988.25 4988.25 0.500000 1692.77 16.0388 0.070648 0.005138
4989 4989 0.500000 1707.64 16.0724 0.070660 0.005033
4989.75 4989.75 0.500000 1728.54 16.1118 0.070499 0.005038
4990.5 4990.5 0.500000 1762.19 16.155 0.069943 0.005187
4991.25 4991.25 0.500000 1797.32 16.1946 0.069054 0.004925
4992 4992 0.500000 1848.06 16.2271 0.068512 0.004961
4992.75 4992.75 0.500000 1892.41 16.2522 0.067987 0.004972
4993.5 4993.5 0.500000 1918.93 16.274 0.067531 0.004938
4994.25 4994.25 0.500000 1934.04 16.2895 0.067144 0.004911
4995 4995 0.500000 1956.87 16.3082 0.066987 0.004768
4995.75 4995.75 0.500000 1983.05 16.3446 0.067112 0.004979
4998.19 4998.18 0.730000 1984.34 23.8524 0.098145 0.006886
5001.59 5001.58 0.760000 1902.68 24.946 0.107072 0.007323
5005.17 5005.16 0.800000 1775.19 26.4494 0.120393 0.008179
5008.92 5008.91 0.840000 1658.7 27.984 0.134981 0.009433
5012.83 5012.83 0.880000 1536.8 29.4967 0.150440 0.010608
5016.94 5016.93 0.910000 1511.64 30.7994 0.161208 0.011485
5021.19 5021.19 0.950000 1509.39 32.3686 0.171812 0.012380
5025.64 5025.63 0.990000 1507 33.9403 0.183084 0.013039
5030.24 5030.24 1.030000 1533.13 35.5127 0.193311 0.013960
5035.01 5035.01 1.060000 1538.46 36.8342 0.203577 0.013365
5039.98 5039.97 1.100000 1604.94 38.4377 0.212580 0.014262
5045.09 5045.09 1.140000 1643.67 40.0377 0.222496 0.014826
5050.37 5050.38 1.180000 1665.99 41.6614 0.234433 0.016035
5055.83 5055.84 1.210000 1755.57 42.9504 0.240339 0.017643
5061.48 5061.48 1.250000 1787.15 44.6214 0.251436 0.018275
5067.28 5067.29 1.290000 1768.56 46.3002 0.268843 0.019883
5073.27 5073.27 1.330000 1716.9 47.9962 0.288703 0.021495
5079.42 5079.42 1.360000 1729.65 49.3264 0.303236 0.022052
5085.74 5085.74 1.400000 1685.74 51.0098 0.324911 0.022202
5092.23 5092.23 1.440000 1666.28 52.7009 0.345730 0.023366
5098.9 5098.9 1.480000 1671.99 54.4107 0.364655 0.026103
5105.74 5105.74 1.510000 1687.63 55.7694 0.381165 0.028566
5112.74 5112.74 1.550000 1705.95 57.5175 0.400905 0.029842
5119.92 5119.92 1.590000 1726.57 59.287 0.421103 0.031430
5127.27 5127.27 1.630000 1738.78 61.0931 0.443638 0.033553
5134.79 5134.79 1.660000 1754.12 62.6828 0.465049 0.035412
5142.49 5142.49 1.700000 1774.17 64.7476 0.490754 0.036923
5150.35 5150.35 1.740000 1791.49 66.6751 0.516956 0.038110
5158.39 5158.39 1.780000 1811.48 68.7756 0.546137 0.040702
5166.6 5166.6 1.810000 1801.68 70.3652 0.575042 0.044259
5174.98 5174.98 1.850000 1801.49 72.3355 0.607885 0.047637
5183.53 5183.53 1.890000 1802.21 74.3642 0.643811 0.051241
5192.25 5192.25 1.930000 1806.46 76.3675 0.679317 0.054269
5201.14 5201.14 1.960000 1815.31 77.9741 0.712888 0.056976
5210.21 5210.21 2.000000 1825.92 80.0524 0.751778 0.060117
5219.45 5219.45 2.040000 1841.65 82.0913 0.791579 0.063634
5228.85 5228.85 2.080000 1856.11 84.059 0.833385 0.067891
5238.43 5238.43 2.110000 1869.42 85.7353 0.873131 0.072593
5248.18 5248.18 2.150000 1882.88 87.3332 0.915091 0.077243
5258.11 5258.11 2.190000 1898.43 90.0088 0.969941 0.083172
5268.2 5268.2 2.230000 1912.03 92.3805 1.022459 0.088489
5278.47 5278.47 2.260000 1929.48 93.2823 1.062201 0.091875
5288.9 5288.9 2.300000 1945.11 97.4198 1.143249 0.099810
5299.51 5299.51 2.340000 1955.81 99.8291 1.207586 0.106939
5310.29 5310.29 2.380000 1961.58 102.333 1.277396 0.114543
5321.24 5321.24 2.410000 1973.47 104.218 1.340391 0.121249
5332.36 5332.36 2.450000 1988.43 106.404 1.410171 0.129633
5343.66 5343.66 2.490000 1999 108.795 1.484982 0.138591
5355.12 5355.12 2.530000 2013.17 110.108 1.548045 0.146675
5366.76 5366.76 2.560000 2031.95 113.059 1.638966 0.156611
5378.57 5378.57 2.600000 2045.23 114.886 1.716689 0.164941
5390.55 5390.55 2.640000 2061.18 116.716 1.798861 0.176005
5402.7 5402.7 2.680000 2086.01 118.038 1.874304 0.185639
5415.02 5415.02 2.710000 2105.99 118.504 1.938968 0.195012
5427.52 5427.52 2.750000 2127.8 119.652 2.018430 0.206413
5440.18 5440.18 2.790000 2150.98 120.627 2.098221 0.217718
5453.02 5453.02 2.830000 2169.22 121.499 2.181141 0.230033
5466.03 5466.03 2.860000 2192.53 122.231 2.264938 0.241102
5479.21 5479.21 2.900000 2211.9 123.672 2.365260 0.255449
5492.56 5492.56 2.940000 2230.13 125.445 2.476104 0.271203
5506.08 5506.08 2.980000 2252.47 127.494 2.597310 0.288255
5519.78 5519.78 3.010000 2282.04 129.523 2.722520 0.306363
5533.64 5533.64 3.050000 2302.04 132.229 2.868439 0.327526
5547.68 5547.68 3.090000 2319.08 135.152 3.027240 0.350082
5561.89 5561.89 3.130000 2342.52 138.165 3.196489 0.374727
5576.27 5576.27 3.160000 2364 141.054 3.368435 0.400549
5590.82 5590.82 3.200000 2387.39 144.453 3.561977 0.429831
5605.54 5605.54 3.240000 2411.56 147.631 3.759605 0.459687
5620.44 5620.44 3.280000 2437.96 150.476 3.956864 0.491051
5635.5 5635.5 3.310000 2458.52 151.87 4.125918 0.519788
5650.74 5650.74 3.350000 2479.39 154.302 4.331669 0.554571
5666.15 5666.15 3.390000 2501.97 157.209 4.557464 0.592550
5681.73 5681.73 3.430000 2526.3 160.538 4.802055 0.632489
5697.48 5697.48 3.460000 2558.8 162.651 5.009248 0.670208
5708.08 5708.08 3.490000 2583.71 164.526 5.133748 0.694243