File: xdidata/Ti/Ti-K-TiO.xdi
# XDI/1.0 BlueSky/1.5.0
# Beamline.name: 6BM
# Beamline.xray_source: NSLS-II three-pole wiggler
# Beamline.collimation: paraboloid mirror, 5 nm Rh on 30 nm Pt
# Beamline.focusing: not in use
# Beamline.harmonic_rejection: flat mirror, Si stripe, pitch = 7.0 mrad relative to beam
# Detector.i0: 10 cm N2
# Detector.i1: 25 cm N2
# Detector.i2: 25 cm N2
# Element.symbol: Ti
# Element.edge: K
# Facility.name: NSLS-II
# Facility.energy: 3.0
# Facility.current: 219.3
# Facility.mode: top-off
# Facility.gup: 301027
# Facility.saf: 304156
# Mono.name: Si(111)
# Mono.d_spacing: 3.13526
# Mono.encoder_resolution: 0.0000050 deg/ct
# Mono.angle_offset: 16.0571 deg
# Mono.scan_mode: pseudo channel cut
# Mono.scan_type: step
# Mono.direction: forward in energy
# Sample.name: TiO
# Sample.prep: Powder in polyethylene glycol pellet
# Sample.x_position: -97.532 mm
# Sample.y_position: 117.543 mm
# Sample.wheel_position: -720.000 mm
# Scan.experimenters: Bruce Ravel, Martin Stennett
# Scan.edge_energy: 4966.0
# Scan.start_time: 2019-05-30T09:28:40
# Scan.end_time: 2019-05-30T10:11:04
# Scan.transient_id: 9812
# Scan.uid: 5e9fb322-3abe-42ad-8e8c-6943a9110918
# Scan.plot_hint: ln(I0/It)  --  ln($5/$6)
# Scan.sequence: merge of 3 scans
# Column.1: energy eV
# Column.2: requested_energy eV
# Column.3: measurement_time seconds
# Column.4: mutrans
# Column.5: i0
# Column.6: itrans
# Column.7: irefer
# /////
#  sample disk prepared by Martin
# -----
# energy   requested_energy   measurement_time   mutrans   i0   itrans   irefer
4766 4766 0.500000 3.771044 10.9476 0.252104 0.020359
4796.01 4796 0.500000 3.687958 11.5959 0.290166 0.024371
4826.01 4826 0.500000 3.608606 12.2335 0.331401 0.028662
4856 4856 0.500000 3.530202 12.8943 0.377785 0.033997
4886.01 4886 0.500000 3.453683 13.5361 0.428135 0.039995
4916.01 4916 0.500000 3.379395 14.1243 0.481190 0.046664
4938 4938 0.500000 3.328029 14.5493 0.521796 0.052076
4944 4944 0.500000 3.315482 14.6823 0.533208 0.053434
4950 4950 0.500000 3.303408 14.7858 0.543494 0.054852
4956 4956 0.500000 3.294027 14.8795 0.552089 0.055958
4956.74 4956.75 0.500000 3.293568 14.8847 0.552539 0.056039
4957.5 4957.5 0.500000 3.293374 14.8973 0.553117 0.056040
4958.25 4958.25 0.500000 3.292044 14.9056 0.554156 0.056172
4958.99 4959 0.500000 3.292643 14.9126 0.554087 0.056091
4959.75 4959.75 0.500000 3.292631 14.9257 0.554579 0.056283
4960.5 4960.5 0.500000 3.291953 14.9348 0.555292 0.055985
4961.25 4961.25 0.500000 3.292885 14.9484 0.555282 0.055927
4962 4962 0.500000 3.294342 14.9598 0.554894 0.055665
4962.75 4962.75 0.500000 3.297315 14.9717 0.553686 0.055142
4963.5 4963.5 0.500000 3.301511 15.0149 0.552957 0.054333
4964.25 4964.25 0.500000 3.310791 15.0283 0.548347 0.050787
4965 4965 0.500000 3.340557 15.0406 0.532719 0.040149
4965.75 4965.75 0.500000 3.413618 15.0532 0.495671 0.034043
4966.5 4966.5 0.500000 3.459264 15.0627 0.473750 0.035950
4967.25 4967.25 0.500000 3.493887 15.0679 0.457754 0.036444
4968 4968 0.500000 3.529459 15.0847 0.442228 0.034355
4968.75 4968.75 0.500000 3.584034 15.0934 0.419121 0.030903
4969.5 4969.5 0.500000 3.646570 15.0964 0.393734 0.028010
4970.25 4970.25 0.500000 3.713076 15.1069 0.368621 0.025704
4971 4971 0.500000 3.797663 15.1343 0.339343 0.023798
4971.75 4971.75 0.500000 3.894857 15.1539 0.308302 0.020962
4972.5 4972.5 0.500000 3.983444 15.1664 0.282410 0.018556
4973.25 4973.25 0.500000 4.060639 15.1787 0.261638 0.015911
4974 4974 0.500000 4.120238 15.1975 0.246814 0.014440
4974.75 4974.75 0.500000 4.158630 15.2224 0.237913 0.013366
4975.5 4975.5 0.500000 4.184514 15.2213 0.231806 0.012413
4976.25 4976.25 0.500000 4.220532 15.2251 0.223678 0.011656
4977 4977 0.500000 4.272756 15.2256 0.212317 0.010868
4977.75 4977.75 0.500000 4.332850 15.2344 0.200030 0.009670
4978.5 4978.5 0.500000 4.390938 15.2441 0.188865 0.009062
4979.25 4979.25 0.500000 4.449639 15.2453 0.178098 0.008641
4980 4980 0.500000 4.511387 15.24 0.167397 0.007946
4980.76 4980.75 0.500000 4.577751 15.2323 0.156540 0.007949
4981.5 4981.5 0.500000 4.648163 15.2311 0.145901 0.007254
4982.25 4982.25 0.500000 4.727069 15.2376 0.134881 0.006722
4983 4983 0.500000 4.802123 15.2438 0.125170 0.006257
4983.75 4983.75 0.500000 4.845794 15.2741 0.120077 0.006344
4984.5 4984.5 0.500000 4.849548 15.2717 0.119608 0.006206
4985.25 4985.25 0.500000 4.817946 15.2737 0.123446 0.006280
4986.01 4986 0.500000 4.766483 15.2817 0.130080 0.006702
4986.75 4986.75 0.500000 4.714668 15.2754 0.136909 0.007233
4987.5 4987.5 0.500000 4.668997 15.271 0.143261 0.007439
4988.25 4988.25 0.500000 4.631339 15.2791 0.148827 0.007760
4989 4989 0.500000 4.600204 15.3044 0.153803 0.007672
4989.75 4989.75 0.500000 4.570142 15.3457 0.158937 0.007851
4990.5 4990.5 0.500000 4.541878 15.3802 0.163845 0.008253
4991.25 4991.25 0.500000 4.520238 15.4161 0.167823 0.008371
4992 4992 0.500000 4.510079 15.4429 0.169832 0.008592
4992.75 4992.75 0.500000 4.507739 15.5045 0.170911 0.008502
4993.51 4993.5 0.500000 4.515009 15.5191 0.169820 0.008377
4994.25 4994.25 0.500000 4.527746 15.5324 0.167827 0.008381
4995 4995 0.500000 4.545444 15.5469 0.165031 0.008267
4995.75 4995.75 0.500000 4.564454 15.5547 0.162014 0.007967
4998.19 4998.18 0.730000 4.590280 22.7257 0.230667 0.010926
5001.59 5001.58 0.760000 4.540819 23.7529 0.253323 0.011777
5005.17 5005.16 0.800000 4.463779 25.1774 0.290011 0.013525
5008.91 5008.91 0.840000 4.407476 26.6267 0.324466 0.016144
5012.83 5012.83 0.880000 4.366694 28.0626 0.356200 0.017754
5016.94 5016.93 0.910000 4.347962 29.1764 0.377343 0.019243
5021.2 5021.19 0.950000 4.329117 30.723 0.404904 0.021044
5025.64 5025.63 0.990000 4.343825 32.2294 0.418554 0.022046
5030.24 5030.24 1.030000 4.407919 33.7348 0.410915 0.021296
5035.02 5035.01 1.060000 4.471964 34.929 0.399067 0.019753
5039.98 5039.97 1.100000 4.473898 36.4809 0.415982 0.020125
5045.09 5045.09 1.140000 4.429072 38.0508 0.453772 0.022181
5050.38 5050.38 1.180000 4.368285 39.6572 0.502592 0.025652
5055.84 5055.84 1.210000 4.317898 40.954 0.545830 0.029261
5061.48 5061.48 1.250000 4.319938 42.7023 0.567972 0.030449
5067.28 5067.29 1.290000 4.312953 44.4014 0.594699 0.032337
5073.27 5073.27 1.330000 4.267511 46.1258 0.646527 0.035401
5079.42 5079.42 1.360000 4.239586 47.5289 0.685059 0.036753
5085.74 5085.74 1.400000 4.252683 49.3079 0.701450 0.035977
5092.23 5092.23 1.440000 4.255936 51.1286 0.724994 0.036307
5098.9 5098.9 1.480000 4.218691 53.1074 0.781635 0.041713
5105.74 5105.74 1.510000 4.201651 54.6553 0.818236 0.045904
5112.74 5112.74 1.550000 4.210149 56.5797 0.839878 0.047850
5119.92 5119.92 1.590000 4.194838 58.5461 0.882475 0.050433
5127.27 5127.27 1.630000 4.160103 60.5453 0.944868 0.054808
5134.79 5134.79 1.660000 4.133447 62.2265 0.997336 0.057612
5142.49 5142.49 1.700000 4.119794 64.359 1.045698 0.059601
5150.35 5150.35 1.740000 4.107874 66.5872 1.094874 0.061752
5158.39 5158.39 1.780000 4.079136 68.8555 1.165165 0.067390
5166.6 5166.6 1.810000 4.044802 70.6639 1.237547 0.073170
5174.98 5174.98 1.850000 4.027064 72.8422 1.298524 0.079479
5183.53 5183.53 1.890000 4.017106 75.0944 1.352072 0.084082
5192.25 5192.25 1.930000 3.996604 77.3349 1.421249 0.089215
5201.14 5201.14 1.960000 3.979098 79.2389 1.481965 0.092877
5210.21 5210.21 2.000000 3.957454 81.5693 1.558933 0.097938
5219.45 5219.45 2.040000 3.934076 83.895 1.641305 0.103968
5228.85 5228.85 2.080000 3.913374 86.36 1.724870 0.110807
5238.43 5238.43 2.110000 3.896266 88.5767 1.799673 0.117554
5248.18 5248.18 2.150000 3.873051 90.4762 1.881436 0.125774
5258.11 5258.11 2.190000 3.844200 93.5366 2.002000 0.136162
5268.2 5268.2 2.230000 3.818742 96.2212 2.112571 0.145617
5278.47 5278.47 2.260000 3.796433 97.2976 2.184406 0.151492
5288.9 5288.9 2.300000 3.773058 101.129 2.324112 0.162243
5299.51 5299.51 2.340000 3.749454 103.975 2.446606 0.173759
5310.29 5310.29 2.380000 3.728701 106.767 2.564972 0.185029
5321.24 5321.24 2.410000 3.707507 108.825 2.670424 0.195704
5332.36 5332.36 2.450000 3.684652 111.033 2.787580 0.207834
5343.66 5343.66 2.490000 3.660329 113.745 2.925975 0.222363
5355.12 5355.12 2.530000 3.636331 115.455 3.042096 0.234728
5366.76 5366.76 2.560000 3.612062 118.436 3.197305 0.249364
5378.57 5378.57 2.600000 3.586379 120.936 3.349734 0.264697
5390.55 5390.55 2.640000 3.559426 123.045 3.501265 0.281667
5402.7 5402.7 2.680000 3.535278 124.975 3.643103 0.297461
5415.02 5415.02 2.710000 3.511577 126.525 3.776761 0.313560
5427.52 5427.52 2.750000 3.486873 128.336 3.926608 0.331790
5440.18 5440.18 2.790000 3.461872 130.495 4.093758 0.351605
5453.02 5453.02 2.830000 3.436442 132.843 4.274762 0.372776
5466.03 5466.03 2.860000 3.411081 135.274 4.464770 0.396143
5479.21 5479.21 2.900000 3.386281 138.054 4.670946 0.420039
5492.56 5492.56 2.940000 3.361426 140.844 4.885277 0.446358
5506.08 5506.08 2.980000 3.337531 144.07 5.118050 0.474898
5519.78 5519.78 3.010000 3.312195 146.593 5.341278 0.504154
5533.64 5533.64 3.050000 3.286881 149.949 5.603639 0.537691
5547.68 5547.68 3.090000 3.260741 153.45 5.886363 0.574087
5561.89 5561.89 3.130000 3.235295 156.766 6.168526 0.611647
5576.27 5576.27 3.160000 3.210116 159.53 6.437344 0.648622
5590.82 5590.82 3.200000 3.183978 162.82 6.744097 0.690500
5605.54 5605.54 3.240000 3.158686 166.075 7.055105 0.734393
5620.44 5620.44 3.280000 3.133368 169.634 7.391106 0.782398
5635.5 5635.5 3.310000 3.107210 171.184 7.656326 0.824780
5650.74 5650.74 3.350000 3.081712 174.249 7.994686 0.875817
5666.15 5666.15 3.390000 3.054835 178.285 8.402647 0.936406
5681.73 5681.73 3.430000 3.028796 182.576 8.831892 1.000307
5697.48 5697.48 3.460000 3.002773 185.945 9.232033 1.063868
5708.08 5708.08 3.490000 2.985234 188.461 9.522520 1.109677