File: xdidata/Ti/Ti-K-Ni2TiO4.xdi
# XDI/1.0 BlueSky/1.5.0
# Beamline.name: 6BM
# Beamline.xray_source: NSLS-II three-pole wiggler
# Beamline.collimation: paraboloid mirror, 5 nm Rh on 30 nm Pt
# Beamline.focusing: not in use
# Beamline.harmonic_rejection: flat mirror, Si stripe, pitch = 7.0 mrad relative to beam
# Detector.i0: 10 cm N2
# Detector.i1: 25 cm N2
# Detector.i2: 25 cm N2
# Element.symbol: Ti
# Element.edge: K
# Facility.name: NSLS-II
# Facility.energy: 3.0
# Facility.current: 220.5
# Facility.mode: top-off
# Facility.gup: 301027
# Facility.saf: 304156
# Mono.name: Si(111)
# Mono.d_spacing: 3.13526
# Mono.encoder_resolution: 0.0000050 deg/ct
# Mono.angle_offset: 16.0571 deg
# Mono.scan_mode: pseudo channel cut
# Mono.scan_type: step
# Mono.direction: forward in energy
# Sample.name: Ni2TiO4
# Sample.prep: Powder in polyethylene glycol pellet
# Sample.x_position: -97.532 mm
# Sample.y_position: 117.543 mm
# Sample.wheel_position: -675.000 mm
# Scan.experimenters: Bruce Ravel, Martin Stennett
# Scan.edge_energy: 4966.0
# Scan.start_time: 2019-05-30T07:18:31
# Scan.end_time: 2019-05-30T08:01:24
# Scan.transient_id: 9803
# Scan.uid: ed959132-a19c-4420-bc6c-9cf9bcbae12f
# Scan.plot_hint: ln(I0/It)  --  ln($5/$6)
# Scan.sequence: merge of 3 scans
# Column.1: energy eV
# Column.2: requested_energy eV
# Column.3: measurement_time seconds
# Column.4: mutrans
# Column.5: i0
# Column.6: itrans
# Column.7: irefer
# /////
#  sample disk prepared by Martin
# -----
# energy   requested_energy   measurement_time   mutrans   i0   itrans   irefer
4766 4766 0.500000 3.925763 10.9726 0.216501 0.018205
4796.01 4796 0.500000 3.858393 11.6032 0.244851 0.021014
4826.01 4826 0.500000 3.777993 12.262 0.280415 0.024780
4856 4856 0.500000 3.699020 12.9158 0.319632 0.029194
4886.01 4886 0.500000 3.622317 13.5617 0.362379 0.034146
4916 4916 0.500000 3.547484 14.1499 0.407473 0.040065
4938 4938 0.500000 3.494908 14.5709 0.442251 0.044236
4944.01 4944 0.500000 3.481438 14.6762 0.451488 0.045260
4950 4950 0.500000 3.467639 14.7768 0.460898 0.046871
4956 4956 0.500000 3.454014 14.8682 0.470109 0.047850
4956.75 4956.75 0.500000 3.452820 14.8757 0.470910 0.047858
4957.49 4957.5 0.500000 3.450806 14.8843 0.472130 0.047977
4958.24 4958.25 0.500000 3.449537 14.8935 0.473021 0.048392
4959 4959 0.500000 3.448039 14.9002 0.473945 0.048105
4959.75 4959.75 0.500000 3.446978 14.9155 0.474936 0.048106
4960.49 4960.5 0.500000 3.445364 14.9271 0.476067 0.048400
4961.25 4961.25 0.500000 3.444269 14.9373 0.476918 0.048287
4962 4962 0.500000 3.443119 14.9475 0.477794 0.048286
4962.75 4962.75 0.500000 3.442401 14.9631 0.478637 0.047883
4963.5 4963.5 0.500000 3.442081 14.9754 0.479182 0.046982
4964.25 4964.25 0.500000 3.442307 14.9941 0.479675 0.044555
4964.99 4965 0.500000 3.443373 15.0012 0.479390 0.036389
4965.75 4965.75 0.500000 3.449463 15.0126 0.476846 0.033140
4966.5 4966.5 0.500000 3.468090 15.0275 0.468527 0.035836
4967.25 4967.25 0.500000 3.532113 15.067 0.440390 0.035113
4968 4968 0.500000 3.735536 15.0838 0.359897 0.028097
4968.75 4968.75 0.500000 3.673934 15.0941 0.382844 0.028221
4969.5 4969.5 0.500000 3.519665 15.0987 0.447126 0.031501
4970.25 4970.25 0.500000 3.484377 15.1148 0.463580 0.032491
4971 4971 0.500000 3.477072 15.1455 0.467971 0.031888
4971.75 4971.75 0.500000 3.471960 15.165 0.470959 0.031287
4972.5 4972.5 0.500000 3.468818 15.1789 0.472882 0.029253
4973.25 4973.25 0.500000 3.474087 15.2223 0.471735 0.027638
4974 4974 0.500000 3.492873 15.2352 0.463370 0.025555
4974.75 4974.75 0.500000 3.523221 15.245 0.449744 0.023457
4975.5 4975.5 0.500000 3.556745 15.2494 0.435103 0.021564
4976.25 4976.25 0.500000 3.579676 15.2459 0.425118 0.020158
4977 4977 0.500000 3.586246 15.2841 0.423402 0.019247
4977.75 4977.75 0.500000 3.583085 15.2943 0.425026 0.018531
4978.5 4978.5 0.500000 3.590982 15.3003 0.421830 0.018076
4979.25 4979.25 0.500000 3.603919 15.3037 0.416524 0.017790
4980 4980 0.500000 3.621619 15.2977 0.409045 0.016958
4980.75 4980.75 0.500000 3.646674 15.2936 0.398832 0.016670
4981.5 4981.5 0.500000 3.658731 15.2919 0.394003 0.016251
4982.25 4982.25 0.500000 3.653474 15.3018 0.396338 0.016201
4983 4983 0.500000 3.653211 15.3114 0.396694 0.016117
4983.75 4983.75 0.500000 3.682297 15.3092 0.385215 0.016046
4984.5 4984.5 0.500000 3.736320 15.3112 0.365021 0.015091
4985.25 4985.25 0.500000 3.786527 15.3157 0.347317 0.014673
4986 4986 0.500000 3.839983 15.3168 0.329183 0.014026
4986.75 4986.75 0.500000 3.884332 15.3163 0.314980 0.013586
4987.51 4987.5 0.500000 3.901556 15.311 0.309443 0.013713
4988.25 4988.25 0.500000 3.893459 15.3198 0.312137 0.013672
4989 4989 0.500000 3.863133 15.3529 0.322456 0.013888
4989.75 4989.75 0.500000 3.834240 15.3914 0.332724 0.014723
4990.5 4990.5 0.500000 3.815224 15.4268 0.339872 0.014692
4991.25 4991.25 0.500000 3.800539 15.4617 0.345717 0.015126
4992 4992 0.500000 3.790582 15.4892 0.349777 0.015248
4992.75 4992.75 0.500000 3.787422 15.5115 0.351394 0.015599
4993.5 4993.5 0.500000 3.789026 15.5293 0.351233 0.015383
4994.25 4994.25 0.500000 3.785950 15.5423 0.352591 0.015564
4995 4995 0.500000 3.778187 15.5564 0.355686 0.015500
4995.75 4995.75 0.500000 3.767480 15.5818 0.360102 0.015554
4998.19 4998.18 0.730000 3.775024 22.7797 0.522511 0.021487
5001.59 5001.58 0.760000 3.803800 23.8113 0.530657 0.021471
5005.16 5005.16 0.800000 3.779484 25.2431 0.576409 0.023800
5008.91 5008.91 0.840000 3.787037 26.6971 0.605024 0.026774
5012.84 5012.83 0.880000 3.759684 28.1354 0.655300 0.029868
5016.94 5016.93 0.910000 3.690833 29.3236 0.731657 0.033832
5021.2 5021.19 0.950000 3.664371 30.803 0.789195 0.037398
5025.64 5025.63 0.990000 3.640048 32.3072 0.848104 0.040011
5030.24 5030.24 1.030000 3.612752 33.8231 0.912457 0.041873
5035.02 5035.01 1.060000 3.610474 35.1077 0.949273 0.041443
5039.98 5039.97 1.100000 3.613692 36.667 0.988255 0.041960
5045.09 5045.09 1.140000 3.619720 38.2481 1.024679 0.044962
5050.38 5050.38 1.180000 3.627931 39.8553 1.059001 0.048777
5055.83 5055.84 1.210000 3.608989 41.1563 1.114470 0.054301
5061.48 5061.48 1.250000 3.582575 42.8186 1.190539 0.058563
5067.29 5067.29 1.290000 3.560961 44.5206 1.264898 0.063619
5073.27 5073.27 1.330000 3.567259 46.2464 1.305678 0.066420
5079.42 5079.42 1.360000 3.574913 47.6498 1.335044 0.066034
5085.74 5085.74 1.400000 3.557887 49.4326 1.408781 0.066682
5092.23 5092.23 1.440000 3.533724 51.257 1.496502 0.069347
5098.9 5098.9 1.480000 3.499485 53.1167 1.604848 0.079541
5105.74 5105.74 1.510000 3.462311 54.6519 1.713735 0.090116
5112.74 5112.74 1.550000 3.441693 56.5789 1.811121 0.095857
5119.92 5119.92 1.590000 3.435142 58.7028 1.891451 0.100833
5127.27 5127.27 1.630000 3.431205 60.6846 1.963015 0.106570
5134.79 5134.79 1.660000 3.420378 62.3489 2.038815 0.111247
5142.49 5142.49 1.700000 3.401651 64.458 2.147633 0.115732
5150.35 5150.35 1.740000 3.374134 66.7319 2.285413 0.122123
5158.39 5158.39 1.780000 3.355205 68.8896 2.404395 0.131956
5166.6 5166.6 1.810000 3.338832 70.8388 2.513248 0.141530
5174.98 5174.98 1.850000 3.323982 73.01 2.629030 0.152948
5183.53 5183.53 1.890000 3.314792 75.2566 2.734949 0.162363
5192.25 5192.25 1.930000 3.299450 77.4797 2.859264 0.170869
5201.14 5201.14 1.960000 3.276844 79.2685 2.992164 0.180350
5210.21 5210.21 2.000000 3.242525 81.5845 3.187112 0.191800
5219.45 5219.45 2.040000 3.218002 83.8848 3.358325 0.204808
5228.85 5228.85 2.080000 3.203523 86.2828 3.504702 0.216396
5238.43 5238.43 2.110000 3.187218 88.3255 3.646642 0.230604
5248.18 5248.18 2.150000 3.167294 90.2093 3.799388 0.245936
5258.11 5258.11 2.190000 3.150837 93.4945 4.003079 0.264337
5268.2 5268.2 2.230000 3.129622 96.1879 4.206715 0.281748
5278.47 5278.47 2.260000 3.103876 97.3358 4.367939 0.294663
5288.9 5288.9 2.300000 3.081470 101.357 4.651453 0.316600
5299.51 5299.51 2.340000 3.064554 104.004 4.854329 0.336122
5310.29 5310.29 2.380000 3.048902 106.761 5.061605 0.355947
5321.24 5321.24 2.410000 3.029093 109.052 5.273727 0.377416
5332.36 5332.36 2.450000 3.003974 111.285 5.518588 0.402161
5343.66 5343.66 2.490000 2.980246 114.034 5.790687 0.430742
5355.12 5355.12 2.530000 2.955335 115.473 6.011655 0.454940
5366.76 5366.76 2.560000 2.933881 118.413 6.298422 0.482044
5378.57 5378.57 2.600000 2.912013 120.618 6.557523 0.508611
5390.55 5390.55 2.640000 2.892140 122.69 6.804028 0.536717
5402.7 5402.7 2.680000 2.871000 124.885 7.073776 0.567214
5415.02 5415.02 2.710000 2.846531 126.407 7.337318 0.598945
5427.52 5427.52 2.750000 2.822308 128.19 7.623276 0.633847
5440.18 5440.18 2.790000 2.800347 130.588 7.938318 0.672049
5453.02 5453.02 2.830000 2.778441 132.907 8.258217 0.710717
5466.03 5466.03 2.860000 2.757189 135.036 8.570723 0.749320
5479.21 5479.21 2.900000 2.734946 138.144 8.965208 0.796174
5492.56 5492.56 2.940000 2.711714 141.021 9.366999 0.845922
5506.08 5506.08 2.980000 2.687158 143.996 9.802448 0.899964
5519.78 5519.78 3.010000 2.662877 146.609 10.2256 0.954498
5533.64 5533.64 3.050000 2.639643 149.877 10.6992 1.016480
5547.68 5547.68 3.090000 2.616448 153.101 11.1859 1.080397
5561.89 5561.89 3.130000 2.593618 156.678 11.7115 1.150715
5576.27 5576.27 3.160000 2.570412 159.444 12.1981 1.218805
5590.82 5590.82 3.200000 2.546372 163.008 12.7742 1.297236
5605.54 5605.54 3.240000 2.522728 166.344 13.3475 1.378314
5620.44 5620.44 3.280000 2.499183 169.616 13.9343 1.464002
5635.5 5635.5 3.310000 2.476196 171.488 14.4158 1.541503
5650.74 5650.74 3.350000 2.452758 174.52 15.0185 1.634204
5666.15 5666.15 3.390000 2.429196 178.168 15.698 1.738551
5681.73 5681.73 3.430000 2.406072 182.381 16.4451 1.852293
5697.48 5697.48 3.460000 2.382517 185.377 17.1137 1.961908
5708.08 5708.08 3.490000 2.366559 187.783 17.6146 2.042437