File: xdidata/Ti/Ti-K-Fe2TiO5.xdi
# XDI/1.0 BlueSky/1.5.0
# Beamline.name: 6BM
# Beamline.xray_source: NSLS-II three-pole wiggler
# Beamline.collimation: paraboloid mirror, 5 nm Rh on 30 nm Pt
# Beamline.focusing: not in use
# Beamline.harmonic_rejection: flat mirror, Si stripe, pitch = 7.0 mrad relative to beam
# Detector.i0: 10 cm N2
# Detector.i1: 25 cm N2
# Detector.i2: 25 cm N2
# Element.symbol: Ti
# Element.edge: K
# Facility.name: NSLS-II
# Facility.energy: 3.0
# Facility.current: 220.4
# Facility.mode: top-off
# Facility.gup: 301027
# Facility.saf: 304156
# Mono.name: Si(111)
# Mono.d_spacing: 3.13526
# Mono.encoder_resolution: 0.0000050 deg/ct
# Mono.angle_offset: 16.0571 deg
# Mono.scan_mode: pseudo channel cut
# Mono.scan_type: step
# Mono.direction: forward in energy
# Sample.name: Fe2TiO5
# Sample.prep: Powder in polyethylene glycol pellet
# Sample.x_position: -97.532 mm
# Sample.y_position: 117.543 mm
# Sample.wheel_position: -600.000 mm
# Scan.experimenters: Bruce Ravel, Martin Stennett
# Scan.edge_energy: 4966.0
# Scan.start_time: 2019-05-30T03:41:45
# Scan.end_time: 2019-05-30T04:24:42
# Scan.transient_id: 9788
# Scan.uid: d9aa5281-2d45-470e-9237-65acae46ec2d
# Scan.plot_hint: ln(I0/It)  --  ln($5/$6)
# Scan.sequence: merge of 3 scans
# Column.1: energy eV
# Column.2: requested_energy eV
# Column.3: measurement_time seconds
# Column.4: mutrans
# Column.5: i0
# Column.6: itrans
# Column.7: irefer
# /////
#  sample disk prepared by Martin
# -----
# energy   requested_energy   measurement_time   mutrans   i0   itrans   irefer
4765.99 4766 0.500000 3.535705 10.9975 0.320446 0.025681
4796.01 4796 0.500000 3.462394 11.6986 0.366805 0.030527
4826.01 4826 0.500000 3.391243 12.3587 0.416083 0.035833
4856 4856 0.500000 3.320828 13.0408 0.471062 0.041864
4886 4886 0.500000 3.251408 13.6973 0.530356 0.049272
4916 4916 0.500000 3.183258 14.3039 0.592905 0.057282
4938 4938 0.500000 3.134314 14.7333 0.641337 0.063511
4944 4944 0.500000 3.120884 14.8407 0.654740 0.065310
4950.01 4950 0.500000 3.107481 14.9419 0.668104 0.067540
4956 4956 0.500000 3.095225 15.0339 0.680507 0.068500
4956.74 4956.75 0.500000 3.093685 15.0394 0.681807 0.068831
4957.49 4957.5 0.500000 3.092611 15.0486 0.682958 0.069043
4958.24 4958.25 0.500000 3.091025 15.0608 0.684593 0.069197
4959 4959 0.500000 3.089625 15.0695 0.685952 0.068990
4959.75 4959.75 0.500000 3.088344 15.082 0.687398 0.069288
4960.49 4960.5 0.500000 3.087227 15.0934 0.688688 0.069436
4961.24 4961.25 0.500000 3.085533 15.1059 0.690427 0.069363
4962 4962 0.500000 3.084240 15.1184 0.691893 0.069495
4962.74 4962.75 0.500000 3.083516 15.1318 0.693007 0.068825
4963.5 4963.5 0.500000 3.082793 15.1458 0.694150 0.067710
4964.25 4964.25 0.500000 3.082037 15.1592 0.695288 0.063389
4965 4965 0.500000 3.081729 15.1979 0.697282 0.051549
4965.75 4965.75 0.500000 3.083795 15.2161 0.696673 0.047566
4966.5 4966.5 0.500000 3.093844 15.2235 0.690062 0.052259
4967.25 4967.25 0.500000 3.125508 15.231 0.668851 0.052490
4968 4968 0.500000 3.129934 15.2432 0.666439 0.050616
4968.75 4968.75 0.500000 3.155040 15.2525 0.650327 0.046936
4969.5 4969.5 0.500000 3.180406 15.2567 0.634204 0.044137
4970.25 4970.25 0.500000 3.155130 15.2694 0.650965 0.044345
4971 4971 0.500000 3.130711 15.2989 0.668390 0.044972
4971.75 4971.75 0.500000 3.114109 15.3185 0.680421 0.044187
4972.5 4972.5 0.500000 3.110760 15.3314 0.683275 0.041765
4973.25 4973.25 0.500000 3.110251 15.3357 0.683818 0.039044
4974 4974 0.500000 3.112326 15.3814 0.684433 0.036959
4974.75 4974.75 0.500000 3.123119 15.3865 0.677298 0.034466
4975.5 4975.5 0.500000 3.139834 15.3859 0.666089 0.032130
4976.25 4976.25 0.500000 3.163803 15.4192 0.651691 0.029559
4977 4977 0.500000 3.193028 15.4204 0.632955 0.028131
4977.75 4977.75 0.500000 3.218036 15.4233 0.617480 0.026214
4978.5 4978.5 0.500000 3.237889 15.4393 0.605915 0.025281
4979.25 4979.25 0.500000 3.260163 15.4376 0.592534 0.024811
4980 4980 0.500000 3.291036 15.4304 0.574225 0.023514
4980.75 4980.75 0.500000 3.332430 15.4218 0.550721 0.022270
4981.5 4981.5 0.500000 3.379991 15.424 0.525118 0.021403
4982.25 4982.25 0.500000 3.428615 15.432 0.500452 0.020005
4983 4983 0.500000 3.471506 15.4366 0.479654 0.019255
4983.75 4983.75 0.500000 3.507349 15.4323 0.462599 0.018500
4984.5 4984.5 0.500000 3.535688 15.4286 0.449584 0.018202
4985.25 4985.25 0.500000 3.552942 15.4355 0.442078 0.018362
4986 4986 0.500000 3.557766 15.435 0.439936 0.018290
4986.75 4986.75 0.500000 3.549860 15.4328 0.443357 0.018694
4987.5 4987.5 0.500000 3.534453 15.427 0.450076 0.019227
4988.25 4988.25 0.500000 3.517117 15.4376 0.458257 0.019537
4989 4989 0.500000 3.503616 15.4627 0.465261 0.019754
4989.75 4989.75 0.500000 3.496746 15.5009 0.469612 0.019923
4990.5 4990.5 0.500000 3.493631 15.5373 0.472183 0.020246
4991.25 4991.25 0.500000 3.491592 15.5699 0.474140 0.020265
4992 4992 0.500000 3.490199 15.5951 0.475568 0.020165
4992.75 4992.75 0.500000 3.488901 15.6168 0.476846 0.020646
4993.5 4993.5 0.500000 3.488128 15.6284 0.477577 0.020362
4994.25 4994.25 0.500000 3.488687 15.6415 0.477708 0.020273
4995 4995 0.500000 3.490923 15.6715 0.477555 0.020453
4995.75 4995.75 0.500000 3.495770 15.699 0.476079 0.019843
4998.19 4998.18 0.730000 3.505626 22.9085 0.687899 0.027270
5001.59 5001.58 0.760000 3.488798 23.9399 0.731074 0.028654
5005.17 5005.16 0.800000 3.451288 25.3677 0.804272 0.032310
5008.91 5008.91 0.840000 3.413953 26.8227 0.882746 0.037832
5012.83 5012.83 0.880000 3.379062 28.2651 0.963253 0.042355
5016.94 5016.93 0.910000 3.364772 29.3846 1.015824 0.046145
5021.2 5021.19 0.950000 3.351084 30.931 1.084022 0.050130
5025.64 5025.63 0.990000 3.339678 32.4995 1.152054 0.053422
5030.24 5030.24 1.030000 3.336552 34.0102 1.209380 0.054786
5035.01 5035.01 1.060000 3.335000 35.2123 1.254073 0.053749
5039.96 5039.97 1.100000 3.328413 36.7608 1.317848 0.054893
5045.09 5045.09 1.140000 3.313006 38.3389 1.395796 0.059832
5050.38 5050.38 1.180000 3.308265 39.9364 1.460857 0.066592
5055.83 5055.84 1.210000 3.310773 41.221 1.504071 0.072281
5061.48 5061.48 1.250000 3.306871 42.8839 1.570864 0.075893
5067.29 5067.29 1.290000 3.294190 44.5839 1.653983 0.081902
5073.27 5073.27 1.330000 3.279615 46.3045 1.743042 0.087279
5079.42 5079.42 1.360000 3.256136 47.7044 1.838385 0.089773
5085.74 5085.74 1.400000 3.233348 49.4761 1.950605 0.090619
5092.23 5092.23 1.440000 3.210892 51.2959 2.068301 0.093863
5098.9 5098.9 1.480000 3.193727 53.1719 2.181042 0.106579
5105.74 5105.74 1.510000 3.188708 54.7011 2.255062 0.117615
5112.74 5112.74 1.550000 3.180337 56.7468 2.359051 0.123681
5119.92 5119.92 1.590000 3.163694 58.6912 2.480849 0.131070
5127.27 5127.27 1.630000 3.146224 60.6717 2.609731 0.139914
5134.79 5134.79 1.660000 3.130177 62.3306 2.724485 0.147228
5142.49 5142.49 1.700000 3.116279 64.5641 2.861596 0.152694
5150.35 5150.35 1.740000 3.101272 66.7811 3.004602 0.158566
5158.39 5158.39 1.780000 3.085108 69.0049 3.155254 0.171404
5166.6 5166.6 1.810000 3.070882 70.7936 3.283431 0.183760
5174.98 5174.98 1.850000 3.054215 72.9569 3.440628 0.199062
5183.53 5183.53 1.890000 3.037640 75.1981 3.605602 0.212913
5192.25 5192.25 1.930000 3.016782 77.4261 3.790672 0.225745
5201.14 5201.14 1.960000 2.996635 79.2198 3.957426 0.236680
5210.21 5210.21 2.000000 2.977691 81.5317 4.150780 0.248638
5219.45 5219.45 2.040000 2.962928 83.8649 4.333084 0.262949
5228.85 5228.85 2.080000 2.944842 86.274 4.538914 0.279949
5238.43 5238.43 2.110000 2.928134 88.3569 4.726804 0.297558
5248.18 5248.18 2.150000 2.915703 90.2623 4.889151 0.315209
5258.11 5258.11 2.190000 2.895143 93.6121 5.175934 0.340581
5268.2 5268.2 2.230000 2.875468 96.3448 5.432855 0.362391
5278.47 5278.47 2.260000 2.855342 97.5595 5.613216 0.377472
5288.9 5288.9 2.300000 2.836622 101.539 5.952560 0.404171
5299.51 5299.51 2.340000 2.818617 104.466 6.235407 0.430662
5310.29 5310.29 2.380000 2.801358 107.314 6.516940 0.457555
5321.24 5321.24 2.410000 2.781604 109.44 6.778639 0.483397
5332.36 5332.36 2.450000 2.761400 111.669 7.057858 0.513591
5343.66 5343.66 2.490000 2.740008 114.468 7.391161 0.548782
5355.12 5355.12 2.530000 2.719076 115.96 7.645874 0.577536
5366.76 5366.76 2.560000 2.698653 118.83 7.996802 0.611462
5378.57 5378.57 2.600000 2.678964 120.98 8.303367 0.642865
5390.55 5390.55 2.640000 2.660147 122.989 8.601627 0.677865
5402.7 5402.7 2.680000 2.640376 124.838 8.905223 0.713821
5415.02 5415.02 2.710000 2.619289 126.473 9.214135 0.751918
5427.52 5427.52 2.750000 2.597738 128.059 9.532926 0.792171
5440.18 5440.18 2.790000 2.576461 130.294 9.907880 0.838355
5453.02 5453.02 2.830000 2.555708 132.745 10.306 0.886849
5466.03 5466.03 2.860000 2.535271 134.788 10.6807 0.933368
5479.21 5479.21 2.900000 2.514748 137.494 11.121 0.987428
5492.56 5492.56 2.940000 2.493662 140.266 11.587 1.045674
5506.08 5506.08 2.980000 2.472103 143.156 12.0834 1.109324
5519.78 5519.78 3.010000 2.450211 145.716 12.5717 1.173696
5533.64 5533.64 3.050000 2.428430 148.979 13.1362 1.248640
5547.68 5547.68 3.090000 2.407163 152.221 13.7106 1.325835
5561.89 5561.89 3.130000 2.386596 155.551 14.3017 1.405607
5576.27 5576.27 3.160000 2.365895 158.658 14.8925 1.488479
5590.82 5590.82 3.200000 2.344895 162.264 15.5542 1.581264
5605.54 5605.54 3.240000 2.323570 165.671 16.2231 1.677255
5620.44 5620.44 3.280000 2.302618 169.063 16.9057 1.778288
5635.5 5635.5 3.310000 2.280595 170.475 17.4265 1.866127
5650.74 5650.74 3.350000 2.260391 173.502 18.098 1.971969
5666.15 5666.15 3.390000 2.239847 177.061 18.8525 2.089923
5681.73 5681.73 3.430000 2.219165 181.18 19.6943 2.221290
5697.48 5697.48 3.460000 2.198183 184.019 20.427 2.344376
5708.08 5708.08 3.490000 2.183987 186.323 20.9784 2.434605