File: xdidata/Ti/Ti-K-FeTiO3.xdi
# XDI/1.0 BlueSky/1.5.0
# Beamline.name: 6BM
# Beamline.xray_source: NSLS-II three-pole wiggler
# Beamline.collimation: paraboloid mirror, 5 nm Rh on 30 nm Pt
# Beamline.focusing: not in use
# Beamline.harmonic_rejection: flat mirror, Si stripe, pitch = 7.0 mrad relative to beam
# Detector.i0: 10 cm N2
# Detector.i1: 25 cm N2
# Detector.i2: 25 cm N2
# Element.symbol: Ti
# Element.edge: K
# Facility.name: NSLS-II
# Facility.energy: 3.0
# Facility.current: 220.4
# Facility.mode: top-off
# Facility.gup: 301027
# Facility.saf: 304156
# Mono.name: Si(111)
# Mono.d_spacing: 3.13526
# Mono.encoder_resolution: 0.0000050 deg/ct
# Mono.angle_offset: 16.0571 deg
# Mono.scan_mode: pseudo channel cut
# Mono.scan_type: step
# Mono.direction: forward in energy
# Sample.name: FeTiO3 ilmentite
# Sample.prep: Powder in polyethylene glycol pellet
# Sample.x_position: -97.532 mm
# Sample.y_position: 117.543 mm
# Sample.wheel_position: -495.000 mm
# Scan.experimenters: Bruce Ravel, Martin Stennett
# Scan.edge_energy: 4966.0
# Scan.start_time: 2019-05-29T22:38:18
# Scan.end_time: 2019-05-29T23:21:07
# Scan.transient_id: 9767
# Scan.uid: c73218a9-3596-4db0-a2a7-6013c9c8c299
# Scan.plot_hint: ln(I0/It)  --  ln($5/$6)
# Scan.sequence: merge of 3 scans
# Column.1: energy eV
# Column.2: requested_energy eV
# Column.3: measurement_time seconds
# Column.4: mutrans
# Column.5: i0
# Column.6: itrans
# Column.7: irefer
# /////
#  sample disk prepared by Martin
# -----
# energy   requested_energy   measurement_time   mutrans   i0   itrans   irefer
4765.98 4766 0.500000 3.813591 11.0101 0.242998 0.020035
4796.01 4796 0.500000 3.739806 11.7266 0.278608 0.023556
4826.01 4826 0.500000 3.659155 12.4392 0.320367 0.028072
4856.01 4856 0.500000 3.580892 13.152 0.366292 0.033247
4886.01 4886 0.500000 3.506039 13.8361 0.415301 0.039075
4916 4916 0.500000 3.433368 14.5035 0.468145 0.045708
4938 4938 0.500000 3.381866 14.9782 0.509022 0.051160
4944.01 4944 0.500000 3.367935 15.0952 0.520201 0.052457
4950.01 4950 0.500000 3.354984 15.2034 0.530750 0.053940
4956.01 4956 0.500000 3.342705 15.3021 0.540794 0.055180
4956.75 4956.75 0.500000 3.342214 15.3135 0.541465 0.054997
4957.49 4957.5 0.500000 3.340635 15.3218 0.542613 0.055244
4958.24 4958.25 0.500000 3.338807 15.3344 0.544054 0.055221
4959 4959 0.500000 3.337491 15.3439 0.545108 0.055560
4959.74 4959.75 0.500000 3.336343 15.3542 0.546098 0.055451
4960.49 4960.5 0.500000 3.335197 15.366 0.547147 0.055733
4961.25 4961.25 0.500000 3.334193 15.3809 0.548227 0.055418
4962 4962 0.500000 3.333221 15.396 0.549298 0.055511
4962.75 4962.75 0.500000 3.332818 15.4079 0.549946 0.054894
4963.5 4963.5 0.500000 3.332912 15.4216 0.550387 0.053974
4964.25 4964.25 0.500000 3.332621 15.4485 0.551506 0.049668
4964.99 4965 0.500000 3.334486 15.4685 0.551198 0.040123
4965.75 4965.75 0.500000 3.339811 15.4812 0.548712 0.038628
4966.5 4966.5 0.500000 3.362995 15.4892 0.536454 0.041557
4967.25 4967.25 0.500000 3.398900 15.4963 0.517759 0.040880
4968 4968 0.500000 3.396645 15.5131 0.519474 0.039583
4968.75 4968.75 0.500000 3.497897 15.5221 0.469877 0.034327
4969.5 4969.5 0.500000 3.520767 15.5242 0.459154 0.032458
4970.25 4970.25 0.500000 3.449953 15.5413 0.493299 0.034233
4971 4971 0.500000 3.413403 15.5738 0.512841 0.034780
4971.75 4971.75 0.500000 3.410727 15.626 0.515931 0.033740
4972.5 4972.5 0.500000 3.415557 15.6376 0.513823 0.031659
4973.25 4973.25 0.500000 3.419226 15.6459 0.512200 0.029444
4974 4974 0.500000 3.434791 15.652 0.504545 0.027537
4974.75 4974.75 0.500000 3.467472 15.659 0.488495 0.025274
4975.5 4975.5 0.500000 3.518544 15.6583 0.464140 0.022597
4976.25 4976.25 0.500000 3.577720 15.6915 0.438445 0.020545
4977 4977 0.500000 3.626322 15.6954 0.417687 0.019280
4977.75 4977.75 0.500000 3.658288 15.699 0.404704 0.017672
4978.5 4978.5 0.500000 3.690494 15.7075 0.392012 0.017099
4979.25 4979.25 0.500000 3.734063 15.7075 0.375386 0.016089
4980 4980 0.500000 3.798370 15.7 0.351769 0.015186
4980.75 4980.75 0.500000 3.883643 15.6898 0.322868 0.014016
4981.5 4981.5 0.500000 3.976762 15.6924 0.294198 0.012787
4982.25 4982.25 0.500000 4.058859 15.6966 0.271030 0.011794
4983 4983 0.500000 4.112472 15.7007 0.256975 0.011236
4983.75 4983.75 0.500000 4.131048 15.6952 0.252161 0.010998
4984.5 4984.5 0.500000 4.139380 15.6971 0.250097 0.011127
4985.25 4985.25 0.500000 4.158063 15.7003 0.245521 0.010974
4986 4986 0.500000 4.185768 15.6991 0.238774 0.010762
4986.75 4986.75 0.500000 4.222176 15.6923 0.230163 0.010688
4987.5 4987.5 0.500000 4.269528 15.6862 0.219435 0.010499
4988.25 4988.25 0.500000 4.303535 15.7006 0.212282 0.010297
4989 4989 0.500000 4.294001 15.7307 0.214717 0.010200
4989.75 4989.75 0.500000 4.251250 15.7649 0.224613 0.010791
4990.5 4990.5 0.500000 4.203254 15.8012 0.236174 0.011272
4991.25 4991.25 0.500000 4.168087 15.8354 0.245177 0.011504
4992 4992 0.500000 4.142714 15.859 0.251844 0.011562
4992.75 4992.75 0.500000 4.120424 15.8783 0.257811 0.012048
4993.5 4993.5 0.500000 4.105573 15.8913 0.261905 0.012090
4994.25 4994.25 0.500000 4.096721 15.9082 0.264502 0.012171
4995 4995 0.500000 4.093280 15.9568 0.266230 0.012111
4995.75 4995.75 0.500000 4.096506 16.0191 0.266403 0.012122
4998.19 4998.18 0.730000 4.143130 23.3212 0.370209 0.016195
5001.58 5001.58 0.760000 4.179436 24.3834 0.373237 0.016168
5005.16 5005.16 0.800000 4.114574 25.8339 0.421931 0.018701
5008.91 5008.91 0.840000 4.048935 27.3178 0.476434 0.021745
5012.84 5012.83 0.880000 3.969862 28.8476 0.544518 0.025785
5016.93 5016.93 0.910000 3.939989 29.9854 0.583163 0.028163
5021.2 5021.19 0.950000 3.919395 31.4771 0.624923 0.030726
5025.63 5025.63 0.990000 3.912362 33.072 0.661214 0.032395
5030.24 5030.24 1.030000 3.918611 34.6026 0.687512 0.032992
5035.02 5035.01 1.060000 3.936285 35.8078 0.698977 0.031688
5039.97 5039.97 1.100000 3.950005 37.365 0.719451 0.032127
5045.09 5045.09 1.140000 3.941905 38.9333 0.755749 0.034711
5050.38 5050.38 1.180000 3.920486 40.5299 0.803767 0.038960
5055.83 5055.84 1.210000 3.902505 41.8093 0.844179 0.042697
5061.48 5061.48 1.250000 3.895137 43.4624 0.884054 0.045006
5067.29 5067.29 1.290000 3.884894 45.1391 0.927614 0.048227
5073.27 5073.27 1.330000 3.874022 46.847 0.973227 0.051032
5079.42 5079.42 1.360000 3.851780 48.2305 1.024520 0.052654
5085.74 5085.74 1.400000 3.829774 49.9824 1.085348 0.052411
5092.23 5092.23 1.440000 3.817666 51.7859 1.138204 0.054554
5098.9 5098.9 1.480000 3.788392 53.6281 1.213703 0.062043
5105.74 5105.74 1.510000 3.759648 55.1447 1.284437 0.069735
5112.74 5112.74 1.550000 3.741400 57.1039 1.354552 0.073729
5119.92 5119.92 1.590000 3.726212 59.0032 1.421023 0.077912
5127.27 5127.27 1.630000 3.716770 60.9506 1.481856 0.082492
5134.79 5134.79 1.660000 3.711990 62.5743 1.528620 0.085286
5142.49 5142.49 1.700000 3.699422 64.7677 1.602204 0.088822
5150.35 5150.35 1.740000 3.685781 66.9918 1.679999 0.091898
5158.39 5158.39 1.780000 3.661155 69.108 1.776262 0.099812
5166.6 5166.6 1.810000 3.629637 70.8716 1.879919 0.108243
5174.98 5174.98 1.850000 3.601857 73.0112 1.991222 0.118603
5183.53 5183.53 1.890000 3.587373 75.193 2.080659 0.126372
5192.25 5192.25 1.930000 3.577359 77.3631 2.162253 0.132469
5201.14 5201.14 1.960000 3.562278 79.1168 2.244869 0.137818
5210.21 5210.21 2.000000 3.544921 81.3718 2.349277 0.144554
5219.45 5219.45 2.040000 3.519800 83.6887 2.477632 0.153918
5228.85 5228.85 2.080000 3.494015 86.0425 2.613863 0.164875
5238.43 5238.43 2.110000 3.467380 88.0865 2.748180 0.176683
5248.18 5248.18 2.150000 3.448465 89.9258 2.859136 0.188411
5258.11 5258.11 2.190000 3.432424 93.3841 3.017114 0.202269
5268.2 5268.2 2.230000 3.416974 96.0793 3.152520 0.213975
5278.47 5278.47 2.260000 3.396859 97.5702 3.266484 0.223936
5288.9 5288.9 2.300000 3.373476 101.465 3.477251 0.240403
5299.51 5299.51 2.340000 3.349921 104.432 3.664225 0.257001
5310.29 5310.29 2.380000 3.326761 107.34 3.854503 0.274700
5321.24 5321.24 2.410000 3.304954 109.483 4.018112 0.290708
5332.36 5332.36 2.450000 3.283205 111.753 4.191598 0.309026
5343.66 5343.66 2.490000 3.260694 114.432 4.389816 0.330530
5355.12 5355.12 2.530000 3.237492 116.05 4.556358 0.348597
5366.76 5366.76 2.560000 3.216463 118.752 4.761580 0.368387
5378.57 5378.57 2.600000 3.195023 120.716 4.945216 0.387733
5390.55 5390.55 2.640000 3.173333 122.603 5.132637 0.409244
5402.7 5402.7 2.680000 3.151009 124.566 5.332550 0.432158
5415.02 5415.02 2.710000 3.127534 125.599 5.504471 0.454068
5427.52 5427.52 2.750000 3.104907 126.989 5.692757 0.477564
5440.18 5440.18 2.790000 3.083822 128.889 5.901059 0.504079
5453.02 5453.02 2.830000 3.062773 130.97 6.123874 0.531752
5466.03 5466.03 2.860000 3.041519 132.864 6.345937 0.559266
5479.21 5479.21 2.900000 3.018198 135.273 6.613395 0.592068
5492.56 5492.56 2.940000 2.993712 137.761 6.902002 0.628113
5506.08 5506.08 2.980000 2.968258 140.448 7.218038 0.667610
5519.78 5519.78 3.010000 2.943548 142.933 7.529510 0.708088
5533.64 5533.64 3.050000 2.919917 146.013 7.875704 0.753256
5547.68 5547.68 3.090000 2.897209 149.077 8.225642 0.800417
5561.89 5561.89 3.130000 2.874507 152.566 8.611495 0.850945
5576.27 5576.27 3.160000 2.850326 155.546 8.994570 0.904233
5590.82 5590.82 3.200000 2.826334 158.892 9.411158 0.962051
5605.54 5605.54 3.240000 2.802077 162.035 9.832964 1.021516
5620.44 5620.44 3.280000 2.777850 165.428 10.285 1.086677
5635.5 5635.5 3.310000 2.754737 166.507 10.5942 1.139171
5650.74 5650.74 3.350000 2.730369 169.234 11.0333 1.207228
5666.15 5666.15 3.390000 2.706205 172.269 11.5058 1.280768
5681.73 5681.73 3.430000 2.682269 176.033 12.0421 1.363013
5697.48 5697.48 3.460000 2.658313 178.647 12.5171 1.441263
5708.08 5708.08 3.490000 2.641673 180.672 12.8714 1.499650