File: xdidata/Ti/Ti-K-EuTiO3.xdi
# XDI/1.0 BlueSky/1.5.0
# Beamline.name: 6BM
# Beamline.xray_source: NSLS-II three-pole wiggler
# Beamline.collimation: paraboloid mirror, 5 nm Rh on 30 nm Pt
# Beamline.focusing: not in use
# Beamline.harmonic_rejection: flat mirror, Si stripe, pitch = 7.0 mrad relative to beam
# Detector.i0: 10 cm N2
# Detector.i1: 25 cm N2
# Detector.i2: 25 cm N2
# Element.symbol: Ti
# Element.edge: K
# Facility.name: NSLS-II
# Facility.energy: 3.0
# Facility.current: 219.7
# Facility.mode: top-off
# Facility.gup: 301027
# Facility.saf: 304156
# Mono.name: Si(111)
# Mono.d_spacing: 3.13532
# Mono.encoder_resolution: 0.0000050 deg/ct
# Mono.angle_offset: 16.0577 deg
# Mono.scan_mode: pseudo channel cut
# Mono.scan_type: step
# Mono.direction: forward in energy
# Sample.name: EuTiO3 perovskite
# Sample.prep: powder on tape
# Sample.x_position: -97.500 mm
# Sample.y_position: 115.250 mm
# Sample.wheel_position: 15.000 mm
# Scan.experimenters: Bruce Ravel
# Scan.edge_energy: 4966.0
# Scan.start_time: 2019-06-16T18:11:49
# Scan.end_time: 2019-06-16T20:38:50
# Scan.transient_id: 10630
# Scan.uid: 4e553338-dff6-46a6-ad8a-cdfee4f3e69d
# Scan.plot_hint: ln(I0/It)  --  ln($5/$6)
# Scan.sequence: merge of 9 scans
# Column.1: energy eV
# Column.2: requested_energy eV
# Column.3: measurement_time seconds
# Column.4: mutrans
# Column.5: i0
# Column.6: itrans
# Column.7: irefer
# /////
#  from Fatih Dogan, 1993
# -----
# energy   requested_energy   measurement_time   mutrans   i0   itrans   irefer
4765.99 4766 0.500000 2.835704 8.449051 0.495768 0.033460
4796.01 4796 0.500000 2.771439 9.081480 0.568244 0.040428
4826.01 4826 0.500000 2.708426 9.728670 0.648331 0.048500
4855.99 4856 0.500000 2.647162 10.3786 0.735327 0.057869
4886 4886 0.500000 2.587120 11.0535 0.831625 0.068754
4916 4916 0.500000 2.529040 11.7522 0.937070 0.081131
4938 4938 0.500000 2.487120 12.2592 1.019344 0.091203
4944 4944 0.500000 2.475838 12.4034 1.043026 0.094253
4950 4950 0.500000 2.464703 12.5235 1.064918 0.096718
4956 4956 0.500000 2.453638 12.6405 1.086831 0.099469
4956.74 4956.75 0.500000 2.452202 12.6532 1.089486 0.099721
4957.49 4957.5 0.500000 2.451121 12.6788 1.092871 0.099924
4958.24 4958.25 0.500000 2.449699 12.6914 1.095516 0.100187
4959 4959 0.500000 2.448238 12.7038 1.098187 0.100322
4959.75 4959.75 0.500000 2.446956 12.73 1.101864 0.100746
4960.49 4960.5 0.500000 2.445615 12.7436 1.104520 0.100836
4961.25 4961.25 0.500000 2.444138 12.759 1.107494 0.100923
4961.99 4962 0.500000 2.442937 12.7732 1.110059 0.100790
4962.75 4962.75 0.500000 2.441491 12.7901 1.113134 0.100194
4963.5 4963.5 0.500000 2.440364 12.8057 1.115745 0.098645
4964.25 4964.25 0.500000 2.439160 12.8306 1.119266 0.092625
4965 4965 0.500000 2.438030 12.855 1.122662 0.074832
4965.74 4965.75 0.500000 2.437231 12.87 1.124868 0.069367
4966.5 4966.5 0.500000 2.436908 12.8821 1.126288 0.076990
4967.25 4967.25 0.500000 2.438365 12.8897 1.125319 0.079454
4968 4968 0.500000 2.436309 12.904 1.128886 0.077139
4968.75 4968.75 0.500000 2.438627 12.9139 1.127133 0.072917
4969.5 4969.5 0.500000 2.441983 12.931 1.124847 0.070388
4970.25 4970.25 0.500000 2.438471 12.947 1.130201 0.069391
4971 4971 0.500000 2.438132 12.9825 1.133685 0.068620
4971.75 4971.75 0.500000 2.441228 13.0032 1.131967 0.065852
4972.5 4972.5 0.500000 2.445836 13.015 1.127806 0.061621
4973.25 4973.25 0.500000 2.447653 13.0269 1.126778 0.057544
4974 4974 0.500000 2.447084 13.0482 1.129265 0.054166
4974.75 4974.75 0.500000 2.444643 13.0561 1.132713 0.051276
4975.5 4975.5 0.500000 2.441401 13.0583 1.136577 0.048520
4976.25 4976.25 0.500000 2.439992 13.0626 1.138556 0.045945
4977 4977 0.500000 2.440419 13.0648 1.138259 0.043881
4977.75 4977.75 0.500000 2.442511 13.0724 1.136526 0.042349
4978.5 4978.5 0.500000 2.447772 13.095 1.132549 0.041108
4979.25 4979.25 0.500000 2.457346 13.0974 1.121937 0.040130
4980 4980 0.500000 2.470865 13.0932 1.106555 0.039063
4980.75 4980.75 0.500000 2.488174 13.0925 1.087502 0.038099
4981.5 4981.5 0.500000 2.511563 13.1088 1.063634 0.036833
4982.25 4982.25 0.500000 2.543362 13.119 1.031079 0.035302
4983 4983 0.500000 2.578748 13.1265 0.995828 0.033753
4983.75 4983.75 0.500000 2.601913 13.1301 0.973362 0.033032
4984.5 4984.5 0.500000 2.606023 13.1432 0.970338 0.033079
4985.25 4985.25 0.500000 2.599105 13.1522 0.977751 0.033716
4986 4986 0.500000 2.586829 13.1594 0.990383 0.034832
4986.75 4986.75 0.500000 2.572891 13.1564 1.004003 0.035882
4987.5 4987.5 0.500000 2.564135 13.1681 1.013760 0.036401
4988.25 4988.25 0.500000 2.560432 13.1813 1.018534 0.036745
4989 4989 0.500000 2.558402 13.21 1.022826 0.036869
4989.75 4989.75 0.500000 2.555613 13.2455 1.028437 0.037197
4990.5 4990.5 0.500000 2.555038 13.2829 1.031934 0.037444
4991.25 4991.25 0.500000 2.558928 13.3145 1.030376 0.037603
4992 4992 0.500000 2.565205 13.3519 1.026812 0.037510
4992.75 4992.75 0.500000 2.569275 13.3866 1.025292 0.037616
4993.5 4993.5 0.500000 2.569749 13.4044 1.026169 0.037572
4994.25 4994.25 0.500000 2.567649 13.4183 1.029402 0.037650
4995 4995 0.500000 2.563849 13.4305 1.034263 0.037513
4995.75 4995.75 0.500000 2.560446 13.459 1.039980 0.037086
4998.19 4998.18 0.730000 2.558962 19.6811 1.523034 0.051095
5001.59 5001.58 0.760000 2.547771 20.6085 1.612749 0.053630
5005.17 5005.16 0.800000 2.533843 21.8613 1.734774 0.059027
5008.92 5008.91 0.840000 2.504011 23.1339 1.891373 0.069766
5012.84 5012.83 0.880000 2.486514 24.4109 2.031005 0.077939
5016.93 5016.93 0.910000 2.469676 25.4065 2.149698 0.084829
5021.19 5021.19 0.950000 2.456932 26.7125 2.289202 0.092806
5025.64 5025.63 0.990000 2.451621 28.0536 2.416924 0.098226
5030.24 5030.24 1.030000 2.450367 29.3912 2.535333 0.100772
5035.01 5035.01 1.060000 2.441047 30.4653 2.652602 0.099226
5039.97 5039.97 1.100000 2.440825 31.8557 2.774283 0.101201
5045.09 5045.09 1.140000 2.433803 33.2933 2.919896 0.109774
5050.38 5050.38 1.180000 2.421432 34.7271 3.083569 0.124097
5055.83 5055.84 1.210000 2.422954 35.9016 3.183019 0.135319
5061.47 5061.48 1.250000 2.418063 37.4463 3.336224 0.143442
5067.28 5067.29 1.290000 2.395070 38.9905 3.554576 0.156635
5073.26 5073.27 1.330000 2.385287 40.6005 3.737780 0.167083
5079.41 5079.42 1.360000 2.377355 41.8741 3.885728 0.169237
5085.73 5085.74 1.400000 2.358338 43.4684 4.111118 0.170523
5092.23 5092.23 1.440000 2.341721 45.1511 4.341840 0.177013
5098.9 5098.9 1.480000 2.329419 46.8083 4.556910 0.200240
5105.74 5105.74 1.510000 2.316388 48.1676 4.750720 0.223493
5112.74 5112.74 1.550000 2.305438 49.9087 4.976663 0.236657
5119.92 5119.92 1.590000 2.295692 51.6701 5.202734 0.249408
5127.27 5127.27 1.630000 2.288769 53.4104 5.415364 0.264330
5134.79 5134.79 1.660000 2.277348 54.8288 5.623008 0.277291
5142.49 5142.49 1.700000 2.258145 56.6605 5.923494 0.288389
5150.35 5150.35 1.740000 2.244922 58.423 6.189093 0.298590
5158.39 5158.39 1.780000 2.232075 60.2282 6.462858 0.322194
5166.6 5166.6 1.810000 2.220318 61.6154 6.689862 0.344111
5174.98 5174.98 1.850000 2.205991 63.3349 6.975777 0.371490
5183.53 5183.53 1.890000 2.189337 65.0615 7.286308 0.397256
5192.25 5192.25 1.930000 2.173174 66.764 7.598793 0.418484
5201.14 5201.14 1.960000 2.156766 68.1555 7.885538 0.437267
5210.21 5210.21 2.000000 2.142303 69.8938 8.204435 0.456044
5219.45 5219.45 2.040000 2.128870 71.6004 8.518412 0.480641
5228.85 5228.85 2.080000 2.116970 73.3278 8.828351 0.507041
5238.43 5238.43 2.110000 2.101889 74.8781 9.152040 0.537294
5248.18 5248.18 2.150000 2.082632 76.1858 9.492839 0.571793
5258.11 5258.11 2.190000 2.067279 78.5552 9.939566 0.612521
5268.2 5268.2 2.230000 2.053011 80.4896 10.3307 0.646263
5278.47 5278.47 2.260000 2.038948 81.2699 10.5785 0.667813
5288.9 5288.9 2.300000 2.023800 84.2001 11.1272 0.710912
5299.51 5299.51 2.340000 2.006124 86.2872 11.6064 0.755354
5310.29 5310.29 2.380000 1.988463 88.063 12.0563 0.797871
5321.24 5321.24 2.410000 1.971582 89.7204 12.4923 0.841905
5332.36 5332.36 2.450000 1.955328 91.6428 12.9691 0.891604
5343.66 5343.66 2.490000 1.940217 93.7943 13.4756 0.946873
5355.12 5355.12 2.530000 1.924908 95.4501 13.9251 0.996339
5366.76 5366.76 2.560000 1.907410 97.8871 14.5328 1.053427
5378.57 5378.57 2.600000 1.889557 100.334 15.1644 1.115311
5390.55 5390.55 2.640000 1.871953 102.983 15.8412 1.186089
5402.7 5402.7 2.680000 1.855780 105.504 16.4935 1.257200
5415.02 5415.02 2.710000 1.839773 107.763 17.1184 1.329082
5427.52 5427.52 2.750000 1.822947 110.205 17.8034 1.408774
5440.18 5440.18 2.790000 1.805582 112.96 18.5681 1.497397
5453.02 5453.02 2.830000 1.787632 115.593 19.3453 1.586895
5466.03 5466.03 2.860000 1.769857 117.571 20.0291 1.670382
5479.21 5479.21 2.900000 1.752405 119.793 20.7668 1.762005
5492.56 5492.56 2.940000 1.735961 121.703 21.4478 1.851536
5506.08 5506.08 2.980000 1.718849 123.143 22.0761 1.939851
5519.78 5519.78 3.010000 1.701321 123.884 22.6017 2.021561
5533.64 5533.64 3.050000 1.683615 124.787 23.173 2.110584
5547.68 5547.68 3.090000 1.665408 125.291 23.6941 2.197291
5561.89 5561.89 3.130000 1.647936 125.699 24.1903 2.282960
5576.27 5576.27 3.160000 1.630373 125.638 24.6071 2.363708
5590.82 5590.82 3.200000 1.612625 126.034 25.1265 2.456500
5605.54 5605.54 3.240000 1.594678 126.873 25.7518 2.561979
5620.44 5620.44 3.280000 1.576673 127.62 26.374 2.671294
5635.5 5635.5 3.310000 1.558477 127.617 26.8578 2.770797
5650.74 5650.74 3.350000 1.540659 129.186 27.6768 2.907448
5666.15 5666.15 3.390000 1.522902 131.515 28.6805 3.067178
5681.73 5681.73 3.430000 1.505170 134.317 29.8155 3.245684
5697.48 5697.48 3.460000 1.487242 136.524 30.8538 3.419068
5713.4 5713.4 3.500000 1.469316 139.047 31.9923 3.609310
5729.5 5729.5 3.540000 1.451627 141.448 33.1257 3.804258
5745.77 5745.77 3.580000 1.433786 143.806 34.2839 4.008345
5762.2 5762.2 3.610000 1.415985 146.088 35.4537 4.220210
5778.81 5778.81 3.650000 1.398194 148.401 36.6615 4.442969
5795.59 5795.59 3.690000 1.380502 150.697 37.8931 4.674967
5812.54 5812.54 3.730000 1.362726 152.594 39.0583 4.905492
5818.23 5818.23 3.740000 1.356805 153.088 39.4173 4.980231