File: xdidata/Ti/Ti-K-Dy2TiO5.xdi
# XDI/1.0 BlueSky/1.5.0
# Beamline.name: 6BM
# Beamline.xray_source: NSLS-II three-pole wiggler
# Beamline.collimation: paraboloid mirror, 5 nm Rh on 30 nm Pt
# Beamline.focusing: not in use
# Beamline.harmonic_rejection: flat mirror, Si stripe, pitch = 7.0 mrad relative to beam
# Detector.i0: 10 cm N2
# Detector.i1: 25 cm N2
# Detector.i2: 25 cm N2
# Element.symbol: Ti
# Element.edge: K
# Facility.name: NSLS-II
# Facility.energy: 3.0
# Facility.current: 220.9
# Facility.mode: top-off
# Facility.gup: 301027
# Facility.saf: 304156
# Mono.name: Si(111)
# Mono.d_spacing: 3.13526
# Mono.encoder_resolution: 0.0000050 deg/ct
# Mono.angle_offset: 16.0571 deg
# Mono.scan_mode: pseudo channel cut
# Mono.scan_type: step
# Mono.direction: forward in energy
# Sample.name: Dy2TiO5
# Sample.prep: Powder in polyethylene glycol pellet
# Sample.x_position: -97.532 mm
# Sample.y_position: 117.543 mm
# Sample.wheel_position: -645.000 mm
# Scan.experimenters: Bruce Ravel, Martin Stennett
# Scan.edge_energy: 4966.0
# Scan.start_time: 2019-05-30T05:51:49
# Scan.end_time: 2019-05-30T06:34:29
# Scan.transient_id: 9797
# Scan.uid: 36538793-e70c-4f34-a315-29e40954a34b
# Scan.plot_hint: ln(I0/It)  --  ln($5/$6)
# Scan.sequence: merge of 3 scans
# Column.1: energy eV
# Column.2: requested_energy eV
# Column.3: measurement_time seconds
# Column.4: mutrans
# Column.5: i0
# Column.6: itrans
# Column.7: irefer
# /////
#  sample disk prepared by Martin
# -----
# energy   requested_energy   measurement_time   mutrans   i0   itrans   irefer
4765.99 4766 0.500000 3.814353 11.0193 0.243065 0.020090
4796.01 4796 0.500000 3.755212 11.6439 0.272414 0.022852
4826.01 4826 0.500000 3.679788 12.3161 0.310718 0.027077
4856 4856 0.500000 3.605855 12.9931 0.352944 0.032189
4886 4886 0.500000 3.535834 13.642 0.397451 0.037174
4916 4916 0.500000 3.465731 14.2373 0.444918 0.043413
4938 4938 0.500000 3.416946 14.6639 0.481159 0.048162
4943.99 4944 0.500000 3.402978 14.7695 0.491437 0.049563
4950.01 4950 0.500000 3.390071 14.8691 0.501183 0.050725
4956 4956 0.500000 3.376854 14.9611 0.510993 0.051969
4956.74 4956.75 0.500000 3.375645 14.968 0.511848 0.052147
4957.5 4957.5 0.500000 3.374096 14.976 0.512914 0.052079
4958.24 4958.25 0.500000 3.372247 15.0175 0.515289 0.052481
4959 4959 0.500000 3.370707 15.0294 0.516492 0.052410
4959.75 4959.75 0.500000 3.368827 15.036 0.517695 0.052579
4960.49 4960.5 0.500000 3.366833 15.0455 0.519049 0.052847
4961.25 4961.25 0.500000 3.365098 15.056 0.520318 0.052762
4962 4962 0.500000 3.363719 15.0709 0.521549 0.052674
4962.74 4962.75 0.500000 3.362337 15.0852 0.522763 0.052220
4963.5 4963.5 0.500000 3.361039 15.0969 0.523850 0.051419
4964.25 4964.25 0.500000 3.358715 15.1083 0.525459 0.048567
4965 4965 0.500000 3.358075 15.1183 0.526152 0.039587
4965.75 4965.75 0.500000 3.357503 15.1308 0.526887 0.036305
4966.5 4966.5 0.500000 3.356940 15.1369 0.527396 0.040186
4967.25 4967.25 0.500000 3.360398 15.1443 0.525831 0.041394
4968 4968 0.500000 3.365161 15.1554 0.523722 0.040061
4968.75 4968.75 0.500000 3.363805 15.162 0.524653 0.038066
4969.5 4969.5 0.500000 3.361313 15.1586 0.525849 0.036922
4970.25 4970.25 0.500000 3.356280 15.1715 0.528946 0.036482
4971 4971 0.500000 3.352801 15.2007 0.531817 0.036208
4971.75 4971.75 0.500000 3.351449 15.2167 0.533095 0.034925
4972.5 4972.5 0.500000 3.351798 15.2624 0.534510 0.033108
4973.25 4973.25 0.500000 3.352301 15.272 0.534576 0.030986
4974 4974 0.500000 3.351313 15.2794 0.535364 0.029426
4974.75 4974.75 0.500000 3.351827 15.2853 0.535295 0.027631
4975.5 4975.5 0.500000 3.352089 15.2854 0.535159 0.026107
4976.25 4976.25 0.500000 3.352700 15.281 0.534677 0.024786
4977 4977 0.500000 3.353051 15.2832 0.534569 0.023638
4977.75 4977.75 0.500000 3.354691 15.3268 0.535216 0.023021
4978.5 4978.5 0.500000 3.357233 15.3348 0.534136 0.022505
4979.25 4979.25 0.500000 3.360070 15.3335 0.532577 0.021847
4980 4980 0.500000 3.364872 15.3276 0.529818 0.021633
4980.75 4980.75 0.500000 3.372254 15.3216 0.525734 0.021363
4981.5 4981.5 0.500000 3.382315 15.3206 0.520404 0.021066
4982.25 4982.25 0.500000 3.395888 15.3267 0.513611 0.020517
4983 4983 0.500000 3.410275 15.334 0.506497 0.020187
4983.75 4983.75 0.500000 3.420343 15.3278 0.501246 0.019949
4984.5 4984.5 0.500000 3.423910 15.3262 0.499403 0.020020
4985.25 4985.25 0.500000 3.420807 15.3317 0.501128 0.020157
4986 4986 0.500000 3.413626 15.3343 0.504833 0.020676
4986.75 4986.75 0.500000 3.405687 15.3302 0.508712 0.021065
4987.5 4987.5 0.500000 3.399382 15.3627 0.513020 0.021496
4988.25 4988.25 0.500000 3.395469 15.3735 0.515394 0.021667
4989 4989 0.500000 3.393857 15.4034 0.517231 0.021651
4989.75 4989.75 0.500000 3.393594 15.4356 0.518446 0.021692
4990.5 4990.5 0.500000 3.394101 15.4745 0.519492 0.021546
4991.25 4991.25 0.500000 3.394218 15.506 0.520487 0.022150
4992 4992 0.500000 3.395152 15.5384 0.521087 0.021966
4992.75 4992.75 0.500000 3.396752 15.5581 0.520911 0.022156
4993.5 4993.5 0.500000 3.398115 15.5703 0.520611 0.022053
4994.25 4994.25 0.500000 3.399185 15.5864 0.520591 0.022108
4995 4995 0.500000 3.400299 15.5978 0.520394 0.021810
4995.75 4995.75 0.500000 3.399893 15.6074 0.520924 0.021423
4998.18 4998.18 0.730000 3.390303 22.8031 0.768420 0.030334
5001.58 5001.58 0.760000 3.376416 23.834 0.814393 0.031684
5005.17 5005.16 0.800000 3.366148 25.263 0.872134 0.034413
5008.91 5008.91 0.840000 3.351675 26.7059 0.935384 0.039704
5012.84 5012.83 0.880000 3.334053 28.2114 1.005688 0.044096
5016.94 5016.93 0.910000 3.324293 29.3349 1.055995 0.047570
5021.19 5021.19 0.950000 3.313211 30.8139 1.121604 0.051565
5025.64 5025.63 0.990000 3.301688 32.3094 1.189666 0.054837
5030.24 5030.24 1.030000 3.293547 33.8173 1.255363 0.056642
5035.01 5035.01 1.060000 3.284892 35.0137 1.311086 0.055865
5039.96 5039.97 1.100000 3.275560 36.5725 1.382277 0.057422
5045.09 5045.09 1.140000 3.268423 38.1913 1.453812 0.061876
5050.38 5050.38 1.180000 3.258862 39.7901 1.529220 0.069226
5055.84 5055.84 1.210000 3.248966 41.0747 1.594276 0.075787
5061.48 5061.48 1.250000 3.238160 42.7335 1.676697 0.080353
5067.29 5067.29 1.290000 3.226356 44.4175 1.763459 0.086549
5073.27 5073.27 1.330000 3.213098 46.2319 1.859987 0.092340
5079.42 5079.42 1.360000 3.198778 47.6177 1.943379 0.094297
5085.74 5085.74 1.400000 3.183420 49.3897 2.046884 0.094457
5092.23 5092.23 1.440000 3.168195 51.1992 2.154434 0.097774
5098.9 5098.9 1.480000 3.154084 53.0726 2.265021 0.110191
5105.74 5105.74 1.510000 3.140256 54.6011 2.362686 0.122436
5112.74 5112.74 1.550000 3.126551 56.5149 2.479240 0.129500
5119.92 5119.92 1.590000 3.112349 58.4627 2.601385 0.136860
5127.27 5127.27 1.630000 3.097773 60.4378 2.728741 0.145664
5134.79 5134.79 1.660000 3.082812 62.091 2.845654 0.153482
5142.49 5142.49 1.700000 3.068102 64.3227 2.991613 0.159082
5150.35 5150.35 1.740000 3.053409 66.4458 3.136094 0.164559
5158.39 5158.39 1.780000 3.037385 68.5957 3.289856 0.178164
5166.6 5166.6 1.810000 3.021358 70.3706 3.429524 0.190880
5174.98 5174.98 1.850000 3.004550 72.6846 3.602341 0.207348
5183.53 5183.53 1.890000 2.987486 74.9264 3.777352 0.221961
5192.25 5192.25 1.930000 2.970295 77.152 3.956983 0.234811
5201.14 5201.14 1.960000 2.953276 78.9352 4.117928 0.245493
5210.21 5210.21 2.000000 2.936125 81.437 4.321930 0.257780
5219.45 5219.45 2.040000 2.918757 83.7774 4.524047 0.273807
5228.85 5228.85 2.080000 2.901644 86.1998 4.735200 0.290910
5238.43 5238.43 2.110000 2.883901 88.2943 4.937082 0.309614
5248.18 5248.18 2.150000 2.866428 90.2105 5.133137 0.329984
5258.11 5258.11 2.190000 2.848252 93.323 5.407651 0.354909
5268.2 5268.2 2.230000 2.830223 96.0473 5.666764 0.376632
5278.47 5278.47 2.260000 2.811860 97.2345 5.843128 0.391454
5288.9 5288.9 2.300000 2.793311 101.248 6.198235 0.419847
5299.51 5299.51 2.340000 2.774075 103.926 6.485749 0.446967
5310.29 5310.29 2.380000 2.755445 106.743 6.786829 0.475302
5321.24 5321.24 2.410000 2.736722 108.983 7.060169 0.502615
5332.36 5332.36 2.450000 2.717682 111.332 7.350998 0.533113
5343.66 5343.66 2.490000 2.697850 114.119 7.685961 0.569002
5355.12 5355.12 2.530000 2.678398 115.587 7.937699 0.597749
5366.76 5366.76 2.560000 2.659064 118.774 8.315819 0.634105
5378.57 5378.57 2.600000 2.639306 120.973 8.638778 0.667564
5390.55 5390.55 2.640000 2.619634 123.019 8.959414 0.704725
5402.7 5402.7 2.680000 2.600118 124.923 9.277398 0.741839
5415.02 5415.02 2.710000 2.580216 126.334 9.570713 0.778723
5427.52 5427.52 2.750000 2.560409 128.01 9.891722 0.820182
5440.18 5440.18 2.790000 2.540292 130.219 10.2669 0.866771
5453.02 5453.02 2.830000 2.520432 132.622 10.666 0.915586
5466.03 5466.03 2.860000 2.500269 134.698 11.0538 0.963476
5479.21 5479.21 2.900000 2.479943 137.789 11.5396 1.022282
5492.56 5492.56 2.940000 2.459895 140.647 12.0174 1.082883
5506.08 5506.08 2.980000 2.439500 143.62 12.5243 1.147718
5519.78 5519.78 3.010000 2.419242 146.672 13.0522 1.216519
5533.64 5533.64 3.050000 2.398591 150.122 13.6379 1.293150
5547.68 5547.68 3.090000 2.378005 153.588 14.2431 1.373894
5561.89 5561.89 3.130000 2.357489 157.118 14.8724 1.458776
5576.27 5576.27 3.160000 2.336751 160.018 15.4643 1.542855
5590.82 5590.82 3.200000 2.316066 163.387 16.1199 1.635484
5605.54 5605.54 3.240000 2.295059 167.043 16.8305 1.736513
5620.44 5620.44 3.280000 2.274263 170.315 17.5208 1.839145
5635.5 5635.5 3.310000 2.253340 171.84 18.0515 1.929070
5650.74 5650.74 3.350000 2.232508 175.232 18.7952 2.043855
5666.15 5666.15 3.390000 2.211310 178.933 19.6034 2.168789
5681.73 5681.73 3.430000 2.190019 183.374 20.5223 2.310165
5697.48 5697.48 3.460000 2.168956 186.253 21.2882 2.437945
5708.08 5708.08 3.490000 2.154677 188.65 21.8722 2.534504