File: xdidata/Ti/Ti-K-Fresnoite.xdi
# XDI/1.0 BlueSky/1.5.0
# Beamline.name: 6BM
# Beamline.xray_source: NSLS-II three-pole wiggler
# Beamline.collimation: paraboloid mirror, 5 nm Rh on 30 nm Pt
# Beamline.focusing: not in use
# Beamline.harmonic_rejection: flat mirror, Si stripe, pitch = 7.0 mrad relative to beam
# Detector.i0: 10 cm N2
# Detector.i1: 25 cm N2
# Detector.i2: 25 cm N2
# Element.symbol: Ti
# Element.edge: K
# Facility.name: NSLS-II
# Facility.energy: 3.0
# Facility.current: 219.5
# Facility.mode: top-off
# Facility.gup: 301027
# Facility.saf: 304156
# Mono.name: Si(111)
# Mono.d_spacing: 3.13526
# Mono.encoder_resolution: 0.0000050 deg/ct
# Mono.angle_offset: 16.0571 deg
# Mono.scan_mode: pseudo channel cut
# Mono.scan_type: step
# Mono.direction: forward in energy
# Sample.name: Ba2(TiO)Si2O7 fresnoite
# Sample.prep: Powder in polyethylene glycol pellet
# Sample.x_position: -97.532 mm
# Sample.y_position: 117.543 mm
# Sample.wheel_position: -690.000 mm
# Scan.experimenters: Bruce Ravel, Martin Stennett
# Scan.edge_energy: 4966.0
# Scan.start_time: 2019-05-30T08:01:51
# Scan.end_time: 2019-05-30T08:44:49
# Scan.transient_id: 9806
# Scan.uid: 34954009-84be-4eee-97a8-3ec73f49befe
# Scan.plot_hint: ln(I0/It)  --  ln($5/$6)
# Scan.sequence: merge of 3 scans
# Column.1: energy eV
# Column.2: requested_energy eV
# Column.3: measurement_time seconds
# Column.4: mutrans
# Column.5: i0
# Column.6: itrans
# Column.7: irefer
# /////
#  sample disk prepared by Martin
# -----
# energy   requested_energy   measurement_time   mutrans   i0   itrans   irefer
4765.99 4766 0.500000 4.363154 10.9977 0.140092 0.012081
4796.01 4796 0.500000 4.278305 11.6113 0.161004 0.014493
4826.01 4826 0.500000 4.189031 12.2538 0.185781 0.016949
4856 4856 0.500000 4.104034 12.9165 0.213196 0.020118
4886.01 4886 0.500000 4.021226 13.5966 0.243804 0.023506
4916 4916 0.500000 3.939847 14.1853 0.275923 0.027609
4938 4938 0.500000 3.881076 14.6105 0.301396 0.031097
4944 4944 0.500000 3.865325 14.7154 0.308376 0.031649
4950.01 4950 0.500000 3.850402 14.816 0.315154 0.032656
4956 4956 0.500000 3.834896 14.911 0.322129 0.033632
4956.74 4956.75 0.500000 3.833292 14.9175 0.322788 0.033529
4957.5 4957.5 0.500000 3.830615 14.9273 0.323870 0.033833
4958.24 4958.25 0.500000 3.829152 14.9677 0.325217 0.033775
4958.99 4959 0.500000 3.828898 14.9732 0.325422 0.033695
4959.75 4959.75 0.500000 3.825742 14.9886 0.326786 0.033855
4960.5 4960.5 0.500000 3.824189 15.0009 0.327562 0.033858
4961.25 4961.25 0.500000 3.822015 15.013 0.328539 0.033937
4962 4962 0.500000 3.820848 15.0225 0.329133 0.033865
4962.74 4962.75 0.500000 3.818533 15.0348 0.330164 0.033818
4963.5 4963.5 0.500000 3.818697 15.0808 0.331121 0.033113
4964.25 4964.25 0.500000 3.817195 15.0933 0.331894 0.031372
4965 4965 0.500000 3.815719 15.1023 0.332582 0.025750
4965.75 4965.75 0.500000 3.816276 15.1144 0.332663 0.023873
4966.5 4966.5 0.500000 3.819348 15.1222 0.331812 0.025915
4967.25 4967.25 0.500000 3.828010 15.129 0.329082 0.026554
4968 4968 0.500000 3.853441 15.1423 0.321123 0.025280
4968.75 4968.75 0.500000 3.934802 15.1535 0.296276 0.022390
4969.5 4969.5 0.500000 3.962392 15.157 0.288228 0.021025
4970.25 4970.25 0.500000 3.849267 15.1649 0.322950 0.022930
4971 4971 0.500000 3.821941 15.1972 0.332598 0.023339
4971.75 4971.75 0.500000 3.817923 15.2149 0.334322 0.022444
4972.5 4972.5 0.500000 3.825312 15.2248 0.332075 0.021165
4973.25 4973.25 0.500000 3.829703 15.2363 0.330871 0.019900
4974 4974 0.500000 3.832485 15.2415 0.330064 0.018891
4974.75 4974.75 0.500000 3.838037 15.2498 0.328417 0.017646
4975.5 4975.5 0.500000 3.845355 15.2479 0.325983 0.016656
4976.25 4976.25 0.500000 3.858284 15.252 0.321875 0.015762
4977 4977 0.500000 3.878824 15.2519 0.315328 0.014624
4977.75 4977.75 0.500000 3.908806 15.2573 0.306139 0.013980
4978.5 4978.5 0.500000 3.936838 15.2697 0.297919 0.013314
4979.25 4979.25 0.500000 3.958292 15.2693 0.291581 0.012930
4980 4980 0.500000 3.973311 15.2982 0.287774 0.012647
4980.75 4980.75 0.500000 3.982453 15.2857 0.284924 0.012574
4981.5 4981.5 0.500000 4.008976 15.2851 0.277460 0.011710
4982.25 4982.25 0.500000 4.058411 15.2942 0.264216 0.011346
4983 4983 0.500000 4.073634 15.2995 0.260328 0.011352
4983.75 4983.75 0.500000 4.065031 15.2965 0.262519 0.011335
4984.5 4984.5 0.500000 4.056297 15.2954 0.264804 0.011355
4985.25 4985.25 0.500000 4.050288 15.2984 0.266458 0.011609
4986 4986 0.500000 4.061781 15.2994 0.263417 0.011764
4986.75 4986.75 0.500000 4.084574 15.2972 0.257461 0.011726
4987.5 4987.5 0.500000 4.110156 15.3002 0.251009 0.011395
4988.26 4988.25 0.500000 4.128534 15.3358 0.247005 0.011223
4989 4989 0.500000 4.127431 15.3646 0.247745 0.011426
4989.75 4989.75 0.500000 4.116314 15.4037 0.251155 0.011592
4990.5 4990.5 0.500000 4.104240 15.4374 0.254748 0.011896
4991.25 4991.25 0.500000 4.097655 15.472 0.257015 0.011903
4992 4992 0.500000 4.092435 15.4995 0.258811 0.011904
4992.75 4992.75 0.500000 4.086086 15.554 0.261383 0.012074
4993.5 4993.5 0.500000 4.081500 15.5692 0.262845 0.012072
4994.25 4994.25 0.500000 4.079732 15.5822 0.263526 0.012127
4995 4995 0.500000 4.080024 15.5948 0.263662 0.012060
4995.75 4995.75 0.500000 4.079582 15.6168 0.264150 0.011795
4998.18 4998.18 0.730000 4.073304 22.785 0.387818 0.016518
5001.58 5001.58 0.760000 4.058814 23.8166 0.411300 0.017298
5005.16 5005.16 0.800000 4.046601 25.2427 0.441277 0.018937
5008.91 5008.91 0.840000 4.007482 26.689 0.485179 0.022066
5012.83 5012.83 0.880000 3.967146 28.1239 0.532310 0.024937
5016.94 5016.93 0.910000 3.953452 29.241 0.561087 0.026731
5021.19 5021.19 0.950000 3.941927 30.7095 0.596097 0.028995
5025.63 5025.63 0.990000 3.924071 32.2108 0.636497 0.031143
5030.24 5030.24 1.030000 3.914216 33.7195 0.672913 0.032008
5035.01 5035.01 1.060000 3.912221 34.9087 0.698035 0.031233
5039.97 5039.97 1.100000 3.903470 36.4482 0.735223 0.032215
5045.09 5045.09 1.140000 3.892654 38.1017 0.776939 0.035122
5050.38 5050.38 1.180000 3.885166 39.6996 0.815607 0.039050
5055.84 5055.84 1.210000 3.872376 40.9852 0.852855 0.042602
5061.48 5061.48 1.250000 3.863265 42.6375 0.895357 0.045119
5067.28 5067.29 1.290000 3.848190 44.33 0.945035 0.048726
5073.27 5073.27 1.330000 3.828772 46.1529 1.003190 0.051706
5079.42 5079.42 1.360000 3.805130 47.5525 1.058338 0.053958
5085.73 5085.74 1.400000 3.784469 49.3283 1.120777 0.053937
5092.23 5092.23 1.440000 3.761874 51.1439 1.188588 0.056204
5098.9 5098.9 1.480000 3.746393 53.0146 1.251288 0.063295
5105.74 5105.74 1.510000 3.733135 54.6205 1.306399 0.069976
5112.74 5112.74 1.550000 3.716728 56.5474 1.374859 0.074472
5119.92 5119.92 1.590000 3.700904 58.5062 1.445173 0.078250
5127.27 5127.27 1.630000 3.684530 60.4916 1.518883 0.083846
5134.79 5134.79 1.660000 3.665098 62.1549 1.591269 0.088268
5142.49 5142.49 1.700000 3.646629 64.2601 1.675833 0.091724
5150.35 5150.35 1.740000 3.627112 66.3738 1.765067 0.095329
5158.39 5158.39 1.780000 3.605847 68.5213 1.861333 0.103432
5166.6 5166.6 1.810000 3.583911 70.2939 1.951841 0.111751
5174.98 5174.98 1.850000 3.562480 72.5357 2.057733 0.121378
5183.53 5183.53 1.890000 3.541365 74.8294 2.168092 0.130282
5192.25 5192.25 1.930000 3.520574 77.0425 2.279111 0.138552
5201.14 5201.14 1.960000 3.500523 78.8464 2.379710 0.144695
5210.21 5210.21 2.000000 3.482039 81.3174 2.500081 0.152215
5219.45 5219.45 2.040000 3.465627 83.6427 2.614126 0.161001
5228.85 5228.85 2.080000 3.457454 86.0598 2.711733 0.169352
5238.43 5238.43 2.110000 3.491566 88.1423 2.684227 0.171893
5248.18 5248.18 2.150000 5.133749 90.2939 0.532249 0.041227
5258.11 5258.11 2.190000 4.113838 93.3725 1.526036 0.106306
5268.2 5268.2 2.230000 4.213686 96.0795 1.421190 0.100796
5278.47 5278.47 2.260000 4.227269 97.2174 1.418638 0.101778
5288.9 5288.9 2.300000 4.092470 101.029 1.686958 0.120265
5299.51 5299.51 2.340000 4.129302 103.684 1.668696 0.121367
5310.29 5310.29 2.380000 4.104261 106.464 1.756890 0.129592
5321.24 5321.24 2.410000 4.083256 108.541 1.829191 0.136881
5332.36 5332.36 2.450000 4.049948 111.01 1.934164 0.147246
5343.66 5343.66 2.490000 4.013580 113.754 2.055372 0.158988
5355.12 5355.12 2.530000 4.019115 115.185 2.069742 0.162998
5366.76 5366.76 2.560000 4.001212 118.368 2.165347 0.171883
5378.57 5378.57 2.600000 3.964363 120.573 2.288488 0.184018
5390.55 5390.55 2.640000 3.930281 122.923 2.413979 0.196923
5402.7 5402.7 2.680000 3.912061 124.858 2.497055 0.206726
5415.02 5415.02 2.710000 3.889825 126.351 2.583742 0.217912
5427.52 5427.52 2.750000 3.863417 128.067 2.688928 0.230626
5440.18 5440.18 2.790000 3.834577 130.152 2.812649 0.244745
5453.02 5453.02 2.830000 3.809246 132.441 2.935548 0.259642
5466.03 5466.03 2.860000 3.782814 134.554 3.062241 0.274742
5479.21 5479.21 2.900000 3.755283 137.594 3.218838 0.292983
5492.56 5492.56 2.940000 3.729709 140.45 3.370770 0.311436
5506.08 5506.08 2.980000 3.701564 143.365 3.538940 0.332466
5519.78 5519.78 3.010000 3.673831 146.301 3.712988 0.354083
5533.64 5533.64 3.050000 3.645753 149.94 3.913702 0.379185
5547.68 5547.68 3.090000 3.616038 153.237 4.120374 0.405804
5561.89 5561.89 3.130000 3.586617 156.649 4.337886 0.434018
5576.27 5576.27 3.160000 3.557564 159.542 4.548250 0.462239
5590.82 5590.82 3.200000 3.528096 162.938 4.783992 0.494169
5605.54 5605.54 3.240000 3.500331 166.241 5.018358 0.526126
5620.44 5620.44 3.280000 3.563431 169.606 4.806971 0.513485
5635.5 5635.5 3.310000 3.745083 171.408 4.051010 0.442575
5650.74 5650.74 3.350000 3.814216 174.665 3.852253 0.429690
5666.15 5666.15 3.390000 3.719485 178.344 4.324205 0.488335
5681.73 5681.73 3.430000 3.709680 183.092 4.483069 0.515072
5697.48 5697.48 3.460000 3.691052 186.634 4.655732 0.543732
5708.08 5708.08 3.490000 3.669967 189.071 4.817029 0.568564