File: xdidata/Ti/Ti-K-Ce067TiO3.xdi
# XDI/1.0 BlueSky/1.5.0
# Beamline.name: 6BM
# Beamline.xray_source: NSLS-II three-pole wiggler
# Beamline.collimation: paraboloid mirror, 5 nm Rh on 30 nm Pt
# Beamline.focusing: not in use
# Beamline.harmonic_rejection: flat mirror, Si stripe, pitch = 7.0 mrad relative to beam
# Detector.i0: 10 cm N2
# Detector.i1: 25 cm N2
# Detector.i2: 25 cm N2
# Element.symbol: Ti
# Element.edge: K
# Facility.name: NSLS-II
# Facility.energy: 3.0
# Facility.current: 220.0
# Facility.mode: top-off
# Facility.gup: 301027
# Facility.saf: 304156
# Mono.name: Si(111)
# Mono.d_spacing: 3.13526
# Mono.encoder_resolution: 0.0000050 deg/ct
# Mono.angle_offset: 16.0571 deg
# Mono.scan_mode: pseudo channel cut
# Mono.scan_type: step
# Mono.direction: forward in energy
# Sample.name: Ce0.67TiO3
# Sample.prep: Powder in polyethylene glycol pellet
# Sample.x_position: -97.532 mm
# Sample.y_position: 117.543 mm
# Sample.wheel_position: -585.000 mm
# Scan.experimenters: Bruce Ravel, Martin Stennett
# Scan.edge_energy: 4966.0
# Scan.start_time: 2019-05-30T02:58:06
# Scan.end_time: 2019-05-30T03:41:20
# Scan.transient_id: 9785
# Scan.uid: 0c4a041b-07c3-4785-b3c7-19ed2b21f262
# Scan.plot_hint: ln(I0/It)  --  ln($5/$6)
# Scan.sequence: merge of 3 scans
# Column.1: energy eV
# Column.2: requested_energy eV
# Column.3: measurement_time seconds
# Column.4: mutrans
# Column.5: i0
# Column.6: itrans
# Column.7: irefer
# /////
#  sample disk prepared by Martin
# -----
# energy   requested_energy   measurement_time   mutrans   i0   itrans   irefer
4766 4766 0.500000 4.131623 11.0342 0.177176 0.015323
4796.01 4796 0.500000 4.044654 11.7095 0.205100 0.017783
4826.01 4826 0.500000 3.959676 12.374 0.235965 0.021060
4856 4856 0.500000 3.876666 13.057 0.270534 0.024897
4886 4886 0.500000 3.795007 13.7174 0.308405 0.029746
4916 4916 0.500000 3.716249 14.3253 0.348464 0.034462
4938 4938 0.500000 3.659510 14.7548 0.379867 0.038468
4944 4944 0.500000 3.644300 14.8624 0.388498 0.039501
4950.01 4950 0.500000 3.629117 14.9644 0.397151 0.040839
4956 4956 0.500000 3.614962 15.0522 0.405173 0.041918
4956.75 4956.75 0.500000 3.612952 15.0586 0.406161 0.041910
4957.5 4957.5 0.500000 3.610939 15.068 0.407234 0.042032
4958.24 4958.25 0.500000 3.609671 15.0934 0.408440 0.042051
4959 4959 0.500000 3.607798 15.1117 0.409702 0.042382
4959.75 4959.75 0.500000 3.606517 15.1198 0.410446 0.042476
4960.49 4960.5 0.500000 3.603984 15.1318 0.411813 0.042463
4961.25 4961.25 0.500000 3.602809 15.143 0.412602 0.042370
4962 4962 0.500000 3.601162 15.1599 0.413742 0.042423
4962.74 4962.75 0.500000 3.599710 15.176 0.414787 0.041974
4963.5 4963.5 0.500000 3.598026 15.2184 0.416643 0.041694
4964.24 4964.25 0.500000 3.596950 15.2283 0.417366 0.039046
4965 4965 0.500000 3.596696 15.2409 0.417818 0.031605
4965.75 4965.75 0.500000 3.597971 15.251 0.417563 0.029503
4966.5 4966.5 0.500000 3.603578 15.2619 0.415515 0.032390
4967.25 4967.25 0.500000 3.613912 15.2643 0.411311 0.033100
4968 4968 0.500000 3.615141 15.2802 0.411239 0.032023
4968.75 4968.75 0.500000 3.628565 15.2882 0.405980 0.030102
4969.5 4969.5 0.500000 3.642329 15.2958 0.400617 0.028607
4970.25 4970.25 0.500000 3.636735 15.3318 0.403807 0.028438
4971 4971 0.500000 3.633108 15.3606 0.406043 0.028145
4971.75 4971.75 0.500000 3.635602 15.3813 0.405574 0.027002
4972.5 4972.5 0.500000 3.646726 15.3915 0.401361 0.025276
4973.25 4973.25 0.500000 3.650148 15.4022 0.400262 0.023815
4974 4974 0.500000 3.644348 15.4109 0.402811 0.022585
4974.75 4974.75 0.500000 3.636286 15.4159 0.406208 0.021480
4975.5 4975.5 0.500000 3.633001 15.4157 0.407541 0.020435
4976.25 4976.25 0.500000 3.637655 15.4112 0.405540 0.019248
4977 4977 0.500000 3.650269 15.4169 0.400595 0.018302
4977.75 4977.75 0.500000 3.672685 15.4187 0.391778 0.017416
4978.5 4978.5 0.500000 3.705997 15.4286 0.379151 0.016475
4979.25 4979.25 0.500000 3.747238 15.4219 0.363711 0.015635
4980 4980 0.500000 3.795596 15.415 0.346348 0.014870
4980.75 4980.75 0.500000 3.861088 15.4056 0.324232 0.013929
4981.5 4981.5 0.500000 3.941554 15.4036 0.299063 0.013055
4982.25 4982.25 0.500000 4.023936 15.4053 0.275468 0.011911
4983 4983 0.500000 4.087870 15.411 0.258561 0.011325
4983.75 4983.75 0.500000 4.116308 15.4076 0.251217 0.011001
4984.5 4984.5 0.500000 4.105647 15.4004 0.253780 0.010899
4985.25 4985.25 0.500000 4.075766 15.4029 0.261542 0.011850
4986 4986 0.500000 4.046667 15.4042 0.269259 0.011981
4986.75 4986.75 0.500000 4.023194 15.3982 0.275563 0.012317
4987.5 4987.5 0.500000 4.011780 15.4409 0.279497 0.012638
4988.25 4988.25 0.500000 4.010772 15.4492 0.279931 0.012731
4989 4989 0.500000 4.013949 15.4769 0.279535 0.012897
4989.75 4989.75 0.500000 4.022470 15.5099 0.277763 0.012647
4990.5 4990.5 0.500000 4.033287 15.5424 0.275352 0.012545
4991.25 4991.25 0.500000 4.043212 15.5764 0.273230 0.012534
4992 4992 0.500000 4.050391 15.6322 0.272249 0.012639
4992.75 4992.75 0.500000 4.055719 15.6559 0.271203 0.012515
4993.5 4993.5 0.500000 4.059564 15.6678 0.270372 0.012323
4994.25 4994.25 0.500000 4.061371 15.6809 0.270110 0.012261
4995 4995 0.500000 4.062449 15.6923 0.270016 0.012251
4995.75 4995.75 0.500000 4.062162 15.7011 0.270242 0.012122
4998.19 4998.18 0.730000 4.050171 22.9345 0.399507 0.017217
5001.59 5001.58 0.760000 4.024688 23.9686 0.428291 0.018033
5005.16 5005.16 0.800000 3.980163 25.4427 0.475331 0.020551
5008.91 5008.91 0.840000 3.930431 26.9065 0.528309 0.024074
5012.84 5012.83 0.880000 3.881006 28.35 0.584860 0.027308
5016.94 5016.93 0.910000 3.862577 29.4707 0.619290 0.029165
5021.2 5021.19 0.950000 3.850752 30.9464 0.658045 0.031849
5025.63 5025.63 0.990000 3.838203 32.4401 0.698509 0.034052
5030.23 5030.24 1.030000 3.832109 33.9512 0.735505 0.034903
5035.01 5035.01 1.060000 3.829624 35.1418 0.763203 0.034247
5039.97 5039.97 1.100000 3.836916 36.6932 0.791107 0.034482
5045.09 5045.09 1.140000 3.823095 38.2634 0.836443 0.037784
5050.38 5050.38 1.180000 3.812968 39.8537 0.880068 0.041875
5055.84 5055.84 1.210000 3.822879 41.1478 0.899690 0.045021
5061.48 5061.48 1.250000 3.816259 42.8105 0.942258 0.047440
5067.29 5067.29 1.290000 3.790863 44.5018 1.004695 0.051322
5073.27 5073.27 1.330000 3.766827 46.2291 1.069068 0.055645
5079.42 5079.42 1.360000 3.748930 47.7151 1.123344 0.056970
5085.74 5085.74 1.400000 3.716262 49.4919 1.203862 0.057766
5092.23 5092.23 1.440000 3.696120 51.3198 1.273740 0.060175
5098.9 5098.9 1.480000 3.680136 53.3007 1.344230 0.067739
5105.74 5105.74 1.510000 3.664953 54.8324 1.404017 0.075299
5112.74 5112.74 1.550000 3.649814 56.8684 1.478345 0.079741
5119.92 5119.92 1.590000 3.636785 58.8086 1.548840 0.084005
5127.27 5127.27 1.630000 3.619948 60.7844 1.628048 0.089429
5134.79 5134.79 1.660000 3.605012 62.4463 1.697745 0.094061
5142.49 5142.49 1.700000 3.589866 64.5397 1.781425 0.097636
5150.35 5150.35 1.740000 3.572368 66.6508 1.872165 0.101336
5158.39 5158.39 1.780000 3.551735 68.7867 1.972450 0.109713
5166.6 5166.6 1.810000 3.530913 70.5689 2.066138 0.118664
5174.98 5174.98 1.850000 3.509119 72.7212 2.176068 0.128260
5183.53 5183.53 1.890000 3.485294 74.9367 2.296416 0.138556
5192.25 5192.25 1.930000 3.464678 77.1599 2.413795 0.146481
5201.14 5201.14 1.960000 3.445171 78.9449 2.518292 0.153396
5210.21 5210.21 2.000000 3.424725 81.2419 2.645087 0.161336
5219.45 5219.45 2.040000 3.404018 83.7508 2.783818 0.171432
5228.85 5228.85 2.080000 3.383515 86.142 2.922628 0.183293
5238.43 5238.43 2.110000 3.362859 88.6046 3.068915 0.195956
5248.18 5248.18 2.150000 3.340967 90.4919 3.203644 0.209354
5258.11 5258.11 2.190000 3.320572 93.6321 3.383142 0.225608
5268.2 5268.2 2.230000 3.300552 96.3724 3.552554 0.239805
5278.47 5278.47 2.260000 3.277940 97.6251 3.681011 0.250668
5288.9 5288.9 2.300000 3.255205 101.379 3.910483 0.268733
5299.51 5299.51 2.340000 3.231557 104.116 4.112158 0.287505
5310.29 5310.29 2.380000 3.207574 107.009 4.329034 0.306617
5321.24 5321.24 2.410000 3.185076 109.172 4.517034 0.325559
5332.36 5332.36 2.450000 3.162497 111.443 4.716279 0.345804
5343.66 5343.66 2.490000 3.140223 114.25 4.943950 0.369906
5355.12 5355.12 2.530000 3.117205 116.032 5.137979 0.391080
5366.76 5366.76 2.560000 3.094640 118.91 5.385601 0.414629
5378.57 5378.57 2.600000 3.070843 121.077 5.615792 0.438342
5390.55 5390.55 2.640000 3.047998 123.519 5.861447 0.465080
5402.7 5402.7 2.680000 3.025459 125.416 6.087131 0.491143
5415.02 5415.02 2.710000 3.002768 126.718 6.291505 0.516869
5427.52 5427.52 2.750000 2.979523 128.303 6.519959 0.545091
5440.19 5440.18 2.790000 2.955985 130.227 6.775395 0.576296
5453.02 5453.02 2.830000 2.931567 132.373 7.057284 0.610484
5466.03 5466.03 2.860000 2.907390 134.399 7.340633 0.644560
5479.21 5479.21 2.900000 2.883103 137.1 7.672228 0.684692
5492.56 5492.56 2.940000 2.859389 139.797 8.010866 0.726264
5506.08 5506.08 2.980000 2.835372 142.691 8.375489 0.772452
5519.78 5519.78 3.010000 2.811194 145.627 8.756996 0.820775
5533.64 5533.64 3.050000 2.787097 148.88 9.170994 0.874730
5547.68 5547.68 3.090000 2.762691 152.905 9.651645 0.936361
5561.89 5561.89 3.130000 2.737802 156.257 10.1118 0.996702
5576.27 5576.27 3.160000 2.713258 159.137 10.554 1.058125
5590.82 5590.82 3.200000 2.688830 162.586 11.0494 1.126506
5605.54 5605.54 3.240000 2.664223 165.9 11.5555 1.197447
5620.44 5620.44 3.280000 2.639477 169.255 12.0846 1.273928
5635.5 5635.5 3.310000 2.614760 170.77 12.4978 1.341167
5650.74 5650.74 3.350000 2.590074 173.815 13.0386 1.423554
5666.15 5666.15 3.390000 2.565040 177.447 13.6485 1.516487
5681.73 5681.73 3.430000 2.541273 181.871 14.3253 1.618440
5697.48 5697.48 3.460000 2.519904 184.639 14.8574 1.707807
5708.08 5708.08 3.490000 2.513182 187.759 15.2103 1.768708