File: xdidata/Ti/Ti-K-BATO16.xdi
# XDI/1.0 BlueSky/1.5.0
# Beamline.name: 6BM
# Beamline.xray_source: NSLS-II three-pole wiggler
# Beamline.collimation: paraboloid mirror, 5 nm Rh on 30 nm Pt
# Beamline.focusing: not in use
# Beamline.harmonic_rejection: flat mirror, Si stripe, pitch = 7.0 mrad relative to beam
# Detector.i0: 10 cm N2
# Detector.i1: 25 cm N2
# Detector.i2: 25 cm N2
# Element.symbol: Ti
# Element.edge: K
# Facility.name: NSLS-II
# Facility.energy: 3.0
# Facility.current: 219.8
# Facility.mode: top-off
# Facility.gup: 301027
# Facility.saf: 304156
# Mono.name: Si(111)
# Mono.d_spacing: 3.13526
# Mono.encoder_resolution: 0.0000050 deg/ct
# Mono.angle_offset: 16.0571 deg
# Mono.scan_mode: pseudo channel cut
# Mono.scan_type: step
# Mono.direction: forward in energy
# Sample.name: Ba1.2 Al2.4 Ti 5.6 O16
# Sample.prep: Powder in polyethylene glycol pellet
# Sample.x_position: -97.532 mm
# Sample.y_position: 117.543 mm
# Sample.wheel_position: -555.000 mm
# Scan.experimenters: Bruce Ravel, Martin Stennett
# Scan.edge_energy: 4966.0
# Scan.start_time: 2019-05-30T01:31:37
# Scan.end_time: 2019-05-30T02:14:24
# Scan.transient_id: 9779
# Scan.uid: fcdc081d-1def-417a-b5df-ca404ab65176
# Scan.plot_hint: ln(I0/It)  --  ln($5/$6)
# Scan.sequence: merge of 3 scans
# Column.1: energy eV
# Column.2: requested_energy eV
# Column.3: measurement_time seconds
# Column.4: mutrans
# Column.5: i0
# Column.6: itrans
# Column.7: irefer
# /////
#  sample disk prepared by Martin
# -----
# energy   requested_energy   measurement_time   mutrans   i0   itrans   irefer
4765.99 4766 0.500000 3.790129 11.0696 0.250123 0.020573
4796.01 4796 0.500000 3.722067 11.7143 0.283297 0.024191
4826.01 4826 0.500000 3.643599 12.3947 0.324214 0.028533
4856.01 4856 0.500000 3.567202 13.0802 0.369315 0.033689
4886.01 4886 0.500000 3.492634 13.7457 0.418156 0.039422
4916 4916 0.500000 3.418659 14.3689 0.470674 0.045711
4938 4938 0.500000 3.366531 14.8095 0.511068 0.051065
4944.01 4944 0.500000 3.352894 14.9199 0.521944 0.052595
4950.01 4950 0.500000 3.338821 15.0184 0.532838 0.054132
4956.01 4956 0.500000 3.325334 15.1111 0.543403 0.055423
4956.74 4956.75 0.500000 3.323750 15.1173 0.544487 0.055694
4957.49 4957.5 0.500000 3.322416 15.1295 0.545653 0.055615
4958.24 4958.25 0.500000 3.320958 15.1757 0.548117 0.055658
4959 4959 0.500000 3.319447 15.1857 0.549310 0.055938
4959.75 4959.75 0.500000 3.318022 15.1943 0.550403 0.056024
4960.5 4960.5 0.500000 3.316720 15.207 0.551583 0.056292
4961.25 4961.25 0.500000 3.316355 15.2191 0.552225 0.055786
4962 4962 0.500000 3.314580 15.2321 0.553678 0.055829
4962.75 4962.75 0.500000 3.313713 15.2435 0.554574 0.055432
4963.49 4963.5 0.500000 3.312542 15.2575 0.555731 0.054732
4964.25 4964.25 0.500000 3.311690 15.2691 0.556626 0.051003
4965 4965 0.500000 3.311644 15.2806 0.557074 0.041090
4965.75 4965.75 0.500000 3.314306 15.3135 0.556792 0.038686
4966.5 4966.5 0.500000 3.323817 15.3336 0.552240 0.042753
4967.25 4967.25 0.500000 3.346693 15.3327 0.539724 0.042666
4968 4968 0.500000 3.335549 15.3503 0.546390 0.041922
4968.75 4968.75 0.500000 3.368112 15.359 0.529156 0.038513
4969.5 4969.5 0.500000 3.424397 15.358 0.500202 0.035191
4970.25 4970.25 0.500000 3.413177 15.4076 0.507438 0.035259
4971 4971 0.500000 3.379644 15.4369 0.525790 0.035749
4971.75 4971.75 0.500000 3.358978 15.4523 0.537284 0.034979
4972.5 4972.5 0.500000 3.375887 15.4634 0.528657 0.032771
4973.25 4973.25 0.500000 3.386665 15.4723 0.523295 0.030539
4974 4974 0.500000 3.381508 15.4776 0.526176 0.028871
4974.75 4974.75 0.500000 3.387968 15.4845 0.523019 0.027398
4975.5 4975.5 0.500000 3.409299 15.4887 0.512128 0.025494
4976.25 4976.25 0.500000 3.441409 15.4802 0.495651 0.023100
4977 4977 0.500000 3.490064 15.48 0.472159 0.021056
4977.75 4977.75 0.500000 3.557909 15.4863 0.441350 0.019560
4978.5 4978.5 0.500000 3.630559 15.4923 0.410619 0.017622
4979.25 4979.25 0.500000 3.680113 15.4928 0.390774 0.016845
4980 4980 0.500000 3.714965 15.4821 0.377105 0.016106
4980.75 4980.75 0.500000 3.746161 15.4805 0.365471 0.015449
4981.5 4981.5 0.500000 3.783003 15.475 0.352096 0.015048
4982.25 4982.25 0.500000 3.834496 15.482 0.334575 0.014309
4983 4983 0.500000 3.893985 15.4855 0.315365 0.013277
4983.75 4983.75 0.500000 3.945626 15.4814 0.299384 0.012913
4984.5 4984.5 0.500000 3.992171 15.4786 0.285770 0.012419
4985.25 4985.25 0.500000 4.031304 15.4817 0.274806 0.012182
4986 4986 0.500000 4.060309 15.4817 0.266963 0.012073
4986.75 4986.75 0.500000 4.080476 15.4766 0.261562 0.011997
4987.5 4987.5 0.500000 4.094295 15.501 0.258357 0.011910
4988.25 4988.25 0.500000 4.104889 15.5142 0.255867 0.011865
4989 4989 0.500000 4.116316 15.5408 0.253383 0.011737
4989.75 4989.75 0.500000 4.123166 15.5812 0.252310 0.011700
4990.5 4990.5 0.500000 4.119400 15.6134 0.253784 0.011898
4991.26 4991.25 0.500000 4.102671 15.6458 0.258626 0.012317
4992 4992 0.500000 4.074227 15.6727 0.266490 0.012548
4992.75 4992.75 0.500000 4.040648 15.6916 0.275971 0.012729
4993.5 4993.5 0.500000 4.011392 15.7044 0.284358 0.013200
4994.25 4994.25 0.500000 3.987887 15.7154 0.291326 0.013181
4995 4995 0.500000 3.974562 15.7273 0.295477 0.013449
4995.75 4995.75 0.500000 3.971987 15.7548 0.296755 0.013232
4998.18 4998.18 0.730000 4.003734 23.0198 0.420037 0.017847
5001.59 5001.58 0.760000 4.042700 24.0529 0.422132 0.017709
5005.17 5005.16 0.800000 3.991768 25.5373 0.471591 0.020172
5008.92 5008.91 0.840000 3.910153 26.9949 0.540900 0.024428
5012.84 5012.83 0.880000 3.834725 28.44 0.614519 0.028599
5016.94 5016.93 0.910000 3.825886 29.56 0.644383 0.030519
5021.19 5021.19 0.950000 3.810700 31.0325 0.686825 0.033406
5025.64 5025.63 0.990000 3.785748 32.5343 0.738264 0.035704
5030.24 5030.24 1.030000 3.774895 34.0421 0.780901 0.036849
5035.02 5035.01 1.060000 3.778697 35.2358 0.805224 0.035819
5039.96 5039.97 1.100000 3.803637 36.7765 0.819744 0.036082
5045.09 5045.09 1.140000 3.813509 38.3447 0.846291 0.038158
5050.38 5050.38 1.180000 3.802986 39.9367 0.890755 0.042645
5055.84 5055.84 1.210000 3.790773 41.2126 0.930501 0.046771
5061.48 5061.48 1.250000 3.778811 42.8599 0.979343 0.049267
5067.28 5067.29 1.290000 3.764386 44.5476 1.032685 0.053153
5073.27 5073.27 1.330000 3.744810 46.2758 1.093971 0.056756
5079.42 5079.42 1.360000 3.724860 47.7662 1.151951 0.057989
5085.74 5085.74 1.400000 3.705117 49.538 1.218511 0.058680
5092.23 5092.23 1.440000 3.677797 51.3483 1.298026 0.061639
5098.9 5098.9 1.480000 3.649059 53.2142 1.384400 0.070090
5105.74 5105.74 1.510000 3.625863 54.8543 1.460566 0.078672
5112.74 5112.74 1.550000 3.612727 56.768 1.531494 0.082798
5119.92 5119.92 1.590000 3.605561 58.6868 1.594653 0.087082
5127.27 5127.27 1.630000 3.600201 60.6456 1.656729 0.091477
5134.79 5134.79 1.660000 3.590496 62.4245 1.721963 0.095508
5142.49 5142.49 1.700000 3.575738 64.508 1.805881 0.099001
5150.35 5150.35 1.740000 3.556741 66.6219 1.900831 0.103380
5158.39 5158.39 1.780000 3.532809 68.7607 2.009387 0.112343
5166.6 5166.6 1.810000 3.509775 70.5602 2.110014 0.121178
5174.98 5174.98 1.850000 3.489554 72.7361 2.219510 0.131573
5183.53 5183.53 1.890000 3.471207 74.969 2.330000 0.140409
5192.25 5192.25 1.930000 3.452759 77.1941 2.443828 0.148484
5201.14 5201.14 1.960000 3.434450 78.9797 2.546571 0.155490
5210.21 5210.21 2.000000 3.415678 81.281 2.670419 0.162935
5219.45 5219.45 2.040000 3.395486 83.632 2.803692 0.173690
5228.85 5228.85 2.080000 3.378686 86.1624 2.937471 0.184750
5238.43 5238.43 2.110000 3.370415 88.215 3.032412 0.194119
5248.18 5248.18 2.150000 3.699843 90.091 2.227852 0.148304
5258.11 5258.11 2.190000 3.469398 93.4806 2.910596 0.195986
5268.2 5268.2 2.230000 3.469296 96.2373 2.996728 0.203886
5278.47 5278.47 2.260000 3.442211 97.7904 3.128671 0.214926
5288.9 5288.9 2.300000 3.418204 101.517 3.326838 0.230758
5299.51 5299.51 2.340000 3.397523 104.269 3.488435 0.245779
5310.29 5310.29 2.380000 3.379839 107.155 3.648950 0.260728
5321.24 5321.24 2.410000 3.356283 109.327 3.811640 0.277242
5332.36 5332.36 2.450000 3.331366 111.645 3.990678 0.295549
5343.66 5343.66 2.490000 3.311947 114.5 4.172949 0.314683
5355.12 5355.12 2.530000 3.292963 116.128 4.313429 0.330912
5366.76 5366.76 2.560000 3.270238 119.014 4.522222 0.350960
5378.57 5378.57 2.600000 3.248957 121.474 4.714988 0.370101
5390.55 5390.55 2.640000 3.226619 123.488 4.901419 0.391696
5402.7 5402.7 2.680000 3.203352 125.449 5.096491 0.413739
5415.02 5415.02 2.710000 3.180444 126.822 5.271629 0.435943
5427.52 5427.52 2.750000 3.158779 128.361 5.452453 0.458764
5440.18 5440.18 2.790000 3.135257 130.533 5.676677 0.486301
5453.02 5453.02 2.830000 3.112046 132.63 5.903333 0.513576
5466.03 5466.03 2.860000 3.089503 134.532 6.124527 0.541201
5479.21 5479.21 2.900000 3.066429 137.134 6.388694 0.573552
5492.56 5492.56 2.940000 3.043002 139.874 6.670795 0.608331
5506.08 5506.08 2.980000 3.019258 142.678 6.968035 0.645518
5519.78 5519.78 3.010000 2.996015 145.226 7.259231 0.683903
5533.64 5533.64 3.050000 2.972653 148.794 7.613385 0.729671
5547.68 5547.68 3.090000 2.949387 152.012 7.961169 0.775517
5561.89 5561.89 3.130000 2.925852 155.648 8.345708 0.827453
5576.27 5576.27 3.160000 2.902223 158.361 8.694146 0.875492
5590.82 5590.82 3.200000 2.878623 161.959 9.104036 0.932311
5605.54 5605.54 3.240000 2.854998 165.155 9.505621 0.989708
5620.44 5620.44 3.280000 2.851675 168.313 9.719634 1.029544
5635.5 5635.5 3.310000 2.881455 169.548 9.503690 1.024794
5650.74 5650.74 3.350000 2.868856 172.382 9.785061 1.074233
5666.15 5666.15 3.390000 2.836739 175.768 10.3029 1.150549
5681.73 5681.73 3.430000 2.814407 179.654 10.7685 1.222238
5697.48 5697.48 3.460000 2.790396 182.678 11.2159 1.294765
5708.08 5708.08 3.490000 2.772959 185.159 11.5681 1.350940