File: xdidata/Data/Bi/Bi-L1-Bi2Ce2Ti4O12.xdi
# XDI/1.0 BlueSky/1.10.0 BMM/2023-1.0-py310-tiled
# Beamline.name: BMM (06BM) -- Beamline for Materials Measurement (NIST)
# Beamline.xray_source: NSLS-II three-pole wiggler
# Beamline.collimation: paraboloid mirror, 5 nm Rh on 30 nm Pt
# Beamline.focusing: not in use
# Beamline.harmonic_rejection: flat mirror, Pt stripe, pitch = 7.0 mrad relative to beam
# Beamline.software: Bluesky 1.10.0, Ophyd 1.7.0, DataBroker 2.0.0b13, Python 3.10.8, 2023-1.0-py310-tiled
# Detector.I0: 10 cm N2
# Detector.I1: 25 cm N2
# Detector.I2: 25 cm N2
# Element.symbol: Bi
# Element.edge: L1
# Element.reference: Bi
# Element.reference_material: BiO2
# Facility.name: NSLS-II
# Facility.energy: 3.0
# Facility.current: 399.5
# Facility.mode: top-off
# Facility.GUP: 301027
# Facility.SAF: 310583
# Facility.cycle: 2023-2
# Mono.name: Si(111)
# Mono.d_spacing: 3.13519
# Mono.encoder_resolution: 0.0000050 deg/ct
# Mono.angle_offset: 16.0754 deg
# Mono.scan_mode: pseudo channel cut
# Mono.scan_type: step
# Mono.direction: forward in energy
# Sample.name: Bi2Ce2Ti4O12
# Sample.prep: Powder in PEG pellet
# Sample.x: 145.711 mm
# Sample.y: 114.376 mm
# Sample.SDD_position: 205.000 mm
# Scan.experimenters: Bruce Ravel
# Scan.edge_energy: 16387.5
# Scan.start_time: 2023-06-27T14:09:15
# Scan.end_time: 2023-06-27T14:15:59
# Scan.transient_id: 85146
# Scan.uid: 42c52521-970d-427b-a5f2-51b2dc4054de
# Scan.plot_hint: ln(I0/It)  --  ln($5/$6)
# Column.1: energy eV
# Column.2: requested_energy eV
# Column.3: measurement_time seconds
# Column.4: xmu
# Column.5: I0 nA
# Column.6: It nA
# Column.7: Ir nA
# ///////////
# sample courtesy Martin Stennett, University of Sheffield
# -----------
# energy  requested_energy  measurement_time  xmu  I0  It  Ir
  16187.495  16187.500  0.500  -0.104576  21.5958  23.9766  9.129152
  16217.486  16217.500  0.500  -0.106902  21.4657  23.8876  9.131055
  16247.612  16247.500  0.500  -0.109324  21.3086  23.7702  9.119888
  16277.526  16277.500  0.500  -0.111301  21.1638  23.6554  9.109266
  16307.481  16307.500  0.500  -0.113652  20.9686  23.4924  9.072350
  16337.466  16337.500  0.500  -0.115066  20.8716  23.4169  9.058817
  16359.444  16359.500  0.500  -0.115171  20.7573  23.291  8.989574
  16365.449  16365.500  0.500  -0.114680  20.73  23.249  8.949301
  16371.436  16371.500  0.500  -0.113258  20.6588  23.1362  8.867148
  16377.450  16377.500  0.500  -0.110447  20.6549  23.0669  8.754564
  16378.332  16378.400  0.500  -0.109517  20.734  23.1337  8.760378
  16379.248  16379.300  0.500  -0.108881  20.7254  23.1094  8.728051
  16380.177  16380.200  0.500  -0.107734  20.7256  23.0831  8.690590
  16381.059  16381.100  0.500  -0.106379  20.7222  23.0481  8.646126
  16381.976  16382.000  0.500  -0.104966  20.7124  23.0047  8.590479
  16382.869  16382.900  0.500  -0.103510  20.7062  22.9643  8.532340
  16383.787  16383.800  0.500  -0.101322  20.6995  22.9067  8.458171
  16384.680  16384.700  0.500  -0.099027  20.6915  22.8455  8.375803
  16385.598  16385.600  0.500  -0.096217  20.6905  22.7802  8.279436
  16386.480  16386.500  0.500  -0.093042  20.6801  22.6965  8.171714
  16387.374  16387.400  0.500  -0.089356  20.6753  22.6078  8.052257
  16388.280  16388.300  0.500  -0.085588  20.6703  22.5173  7.927901
  16389.186  16389.200  0.500  -0.081531  20.6663  22.4219  7.795502
  16390.057  16390.100  0.500  -0.077642  20.6583  22.3261  7.670540
  16390.987  16391.000  0.500  -0.073862  20.655  22.2384  7.556452
  16391.870  16391.900  0.500  -0.071134  20.6505  22.1729  7.470474
  16392.776  16392.800  0.500  -0.069598  20.6418  22.1296  7.411115
  16393.683  16393.700  0.500  -0.068990  20.6344  22.1082  7.384994
  16394.590  16394.600  0.500  -0.069476  20.6264  22.1104  7.387074
  16395.496  16395.500  0.500  -0.071129  20.6177  22.1377  7.417531
  16396.403  16396.400  0.500  -0.072869  20.6147  22.1729  7.463885
  16397.322  16397.300  0.500  -0.075203  20.6093  22.219  7.522996
  16398.194  16398.200  0.500  -0.077223  20.6064  22.2608  7.576741
  16399.101  16399.100  0.500  -0.079179  20.5935  22.2904  7.627940
  16400.008  16400.000  0.500  -0.080628  20.5886  22.3173  7.672792
  16400.904  16400.900  0.500  -0.081972  20.575  22.3327  7.709296
  16401.823  16401.800  0.500  -0.083003  20.5573  22.3364  7.734453
  16402.695  16402.700  0.500  -0.083845  20.5445  22.3413  7.756964
  16403.615  16403.600  0.500  -0.084722  20.533  22.3484  7.775635
  16404.499  16404.500  0.500  -0.085434  20.5308  22.3619  7.795488
  16405.395  16405.400  0.500  -0.085961  20.5382  22.3818  7.813521
  16406.291  16406.300  0.500  -0.086479  20.538  22.3931  7.831039
  16407.176  16407.200  0.500  -0.086987  20.5359  22.4022  7.842209
  16408.072  16408.100  0.500  -0.087406  20.5324  22.4078  7.852755
  16408.957  16409.000  0.500  -0.087789  20.5203  22.4031  7.859397
  16409.901  16409.900  0.500  -0.088137  20.5166  22.407  7.867634
  16410.786  16410.800  0.500  -0.088327  20.5124  22.4066  7.875368
  16411.683  16411.700  0.500  -0.088541  20.5056  22.404  7.882182
  16412.473  16412.500  0.500  -0.088758  20.4988  22.4014  7.885956
  16415.542  16415.510  0.500  -0.089105  20.4848  22.3939  7.898558
  16418.742  16418.700  0.500  -0.088820  20.4635  22.3642  7.886586
  16422.086  16422.060  0.500  -0.087773  20.4278  22.3019  7.846755
  16425.596  16425.580  0.500  -0.087080  20.4319  22.2909  7.824228
  16429.273  16429.280  0.500  -0.086697  20.4133  22.262  7.799557
  16433.188  16433.150  0.500  -0.086762  20.3967  22.2454  7.788287
  16437.224  16437.200  0.500  -0.087133  20.3607  22.2143  7.775880
  16441.427  16441.410  0.500  -0.087296  20.3321  22.1868  7.767461
  16445.822  16445.790  0.500  -0.087550  20.2939  22.1507  7.758753
  16450.374  16450.350  0.500  -0.088358  20.3079  22.184  7.775298
  16455.083  16455.080  0.500  -0.089510  20.2898  22.1898  7.790918
  16459.960  16459.980  0.500  -0.090523  20.2502  22.1688  7.802652
  16465.078  16465.050  0.500  -0.091278  20.2389  22.1732  7.822229
  16470.294  16470.290  0.500  -0.091442  20.2171  22.1529  7.823788
  16475.692  16475.710  0.500  -0.091590  20.1903  22.1268  7.821886
  16481.296  16481.290  0.500  -0.091848  20.1572  22.0963  7.816133
  16487.046  16487.050  0.500  -0.092060  20.1378  22.0797  7.812262
  16492.968  16492.980  0.500  -0.092526  20.1077  22.0569  7.808991
  16499.096  16499.080  0.500  -0.092993  20.0774  22.034  7.804142
  16505.337  16505.350  0.500  -0.093534  20.0362  22.0008  7.798440
  16511.809  16511.790  0.500  -0.093982  20.016  21.9884  7.797561
  16518.406  16518.400  0.500  -0.094622  19.9897  21.9736  7.801756
  16525.188  16525.190  0.500  -0.095311  20.0156  22.0171  7.825411
  16532.178  16532.150  0.500  -0.096010  19.978  21.9912  7.829465
  16539.271  16539.270  0.500  -0.096612  19.9496  21.9732  7.834695
  16546.586  16546.570  0.500  -0.097506  19.8907  21.9278  7.825856
  16554.051  16554.050  0.500  -0.098159  19.8749  21.9247  7.836169
  16561.692  16561.690  0.500  -0.098566  19.8356  21.8903  7.835993
  16569.508  16569.500  0.500  -0.099156  19.801  21.865  7.836649
  16577.524  16577.490  0.500  -0.099681  19.7686  21.8407  7.837180
  16585.644  16585.650  0.500  -0.100307  19.73  21.8117  7.834612
  16594.002  16593.970  0.500  -0.101059  19.6829  21.7761  7.826985
  16602.489  16602.470  0.500  -0.101748  19.6449  21.749  7.825237
  16611.166  16611.150  0.500  -0.102577  19.6037  21.7213  7.824279
  16619.997  16619.990  0.500  -0.103345  19.5584  21.6878  7.825846
  16629.020  16629.000  0.500  -0.103923  19.5124  21.6493  7.825988
  16638.210  16638.190  0.500  -0.104815  19.4707  21.6223  7.824810
  16647.569  16647.550  0.500  -0.105697  19.4233  21.5887  7.822026
  16657.096  16657.070  0.500  -0.106352  19.3798  21.5545  7.821260
  16666.792  16666.770  0.500  -0.107158  19.329  21.5153  7.820451
  16676.682  16676.650  0.500  -0.107927  19.278  21.475  7.818991
  16686.743  16686.690  0.500  -0.108619  19.2214  21.4269  7.815269
  16696.914  16696.900  0.500  -0.109530  19.1533  21.3703  7.803597
  16707.342  16707.290  0.500  -0.110339  19.0341  21.2545  7.771395
  16717.857  16717.850  0.500  -0.111355  16.1538  18.0566  6.612054
  16728.606  16728.580  0.500  -0.111985  19.119  21.3845  7.843898
  16739.503  16739.480  0.500  -0.113009  19.0429  21.3212  7.832879
  16750.575  16750.550  0.500  -0.113949  18.9759  21.2662  7.827734
  16761.834  16761.790  0.500  -0.114788  18.9151  21.2158  7.822204
  16773.244  16773.210  0.500  -0.115817  18.8545  21.1696  7.817226
  16784.793  16784.790  0.500  -0.116464  18.7949  21.1164  7.812543
  16796.606  16796.550  0.500  -0.117615  18.7208  21.0574  7.803498
  16808.497  16808.480  0.500  -0.118563  18.62  20.9639  7.782090
  16820.603  16820.580  0.500  -0.119501  18.5586  20.9143  7.776658
  16832.889  16832.850  0.500  -0.120564  18.0149  20.3232  7.571205
  16845.329  16845.290  0.500  -0.121447  18.6245  21.0295  7.848145
  16857.937  16857.910  0.500  -0.122498  18.5112  20.9236  7.821996
  16870.752  16870.690  0.500  -0.123624  18.4377  20.8639  7.815355
  16883.686  16883.650  0.500  -0.124608  18.3665  20.8038  7.806179
  16896.827  16896.780  0.500  -0.125536  18.2942  20.7411  7.798436
  16910.115  16910.080  0.500  -0.126548  18.2191  20.6769  7.790402
  16923.600  16923.550  0.500  -0.127528  17.9189  20.3562  7.683533
  16937.244  16937.200  0.500  -0.128555  18.0371  20.5115  7.754759
  16951.100  16951.010  0.500  -0.129555  15.5422  17.692  6.703191
  16965.079  16965.000  0.500  -0.130806  18.0673  20.5921  7.818762
  16979.360  16979.160  0.500  -0.131908  17.9618  20.4945  7.795565
  16993.550  16993.490  0.500  -0.132816  17.9031  20.446  7.794526
  17008.082  17007.990  0.500  -0.134136  17.8228  20.3812  7.783258
  17022.665  17022.660  0.500  -0.135022  17.7443  20.3094  7.772285
  17027.633  17027.590  0.500  -0.135721  17.7188  20.2945  7.772401