File: xdidata/Data/Bi/Bi-L1-BismuthMetal.xdi
# XDI/1.0 BlueSky/1.10.0 BMM/2023-1.0-py310-tiled
# Beamline.name: BMM (06BM) -- Beamline for Materials Measurement (NIST)
# Beamline.xray_source: NSLS-II three-pole wiggler
# Beamline.collimation: paraboloid mirror, 5 nm Rh on 30 nm Pt
# Beamline.focusing: not in use
# Beamline.harmonic_rejection: flat mirror, Pt stripe, pitch = 7.0 mrad relative to beam
# Beamline.software: Bluesky 1.10.0, Ophyd 1.7.0, DataBroker 2.0.0b13, Python 3.10.8, 2023-1.0-py310-tiled
# Detector.I0: 10 cm N2
# Detector.I1: 25 cm N2
# Detector.I2: 25 cm N2
# Element.symbol: Bi
# Element.edge: L1
# Element.reference: Bi
# Element.reference_material: BiO2
# Facility.name: NSLS-II
# Facility.energy: 3.0
# Facility.current: 399.9
# Facility.mode: top-off
# Facility.GUP: 301027
# Facility.SAF: 310583
# Facility.cycle: 2023-2
# Mono.name: Si(111)
# Mono.d_spacing: 3.13519
# Mono.encoder_resolution: 0.0000050 deg/ct
# Mono.angle_offset: 16.0754 deg
# Mono.scan_mode: pseudo channel cut
# Mono.scan_type: step
# Mono.direction: forward in energy
# Sample.name: Bi
# Sample.prep: powder in PEG pellet
# Sample.x: 143.785 mm
# Sample.y: 114.695 mm
# Sample.SDD_position: 205.000 mm
# Scan.experimenters: Bruce Ravel
# Scan.edge_energy: 16387.5
# Scan.start_time: 2023-06-23T18:50:08
# Scan.end_time: 2023-06-23T18:57:34
# Scan.transient_id: 84948
# Scan.uid: f21fda1c-aac2-4082-9c27-df7740e031d7
# Scan.plot_hint: ln(I0/It)  --  ln($5/$6)
# Column.1: energy eV
# Column.2: requested_energy eV
# Column.3: measurement_time seconds
# Column.4: xmu
# Column.5: I0 nA
# Column.6: It nA
# Column.7: Ir nA
# ///////////
# BMM standards collection
# -----------
# energy  requested_energy  measurement_time  xmu  I0  It  Ir
  16187.472  16187.500  0.500  0.406384  20.2826  13.5093  5.109276
  16217.440  16217.500  0.500  0.404090  20.1962  13.4826  5.119461
  16247.450  16247.500  0.500  0.401735  20.1296  13.4699  5.133581
  16277.456  16277.500  0.500  0.399799  20.005  13.4124  5.129780
  16307.469  16307.500  0.500  0.397864  19.8423  13.3291  5.115329
  16337.466  16337.500  0.500  0.396095  19.7402  13.284  5.104518
  16359.432  16359.500  0.500  0.396361  19.6685  13.2323  5.072903
  16365.414  16365.500  0.500  0.396947  19.6274  13.1969  5.046363
  16371.389  16371.500  0.500  0.398433  19.5524  13.1269  4.995501
  16377.438  16377.500  0.500  0.401810  19.5734  13.0967  4.933354
  16378.320  16378.400  0.500  0.402800  19.5692  13.0809  4.916439
  16379.237  16379.300  0.500  0.403688  19.562  13.0645  4.895934
  16380.153  16380.200  0.500  0.404768  19.5488  13.0416  4.870898
  16381.059  16381.100  0.500  0.406066  19.5494  13.0251  4.845917
  16381.952  16382.000  0.500  0.407594  19.5377  12.9974  4.812921
  16382.881  16382.900  0.500  0.408989  19.5297  12.974  4.776954
  16383.775  16383.800  0.500  0.411286  19.5383  12.9499  4.736112
  16384.669  16384.700  0.500  0.413867  19.5228  12.9063  4.686060
  16385.574  16385.600  0.500  0.416536  19.5121  12.8648  4.626460
  16386.480  16386.500  0.500  0.419533  19.5054  12.8219  4.565699
  16387.386  16387.400  0.500  0.422598  19.4961  12.7766  4.498247
  16388.268  16388.300  0.500  0.425647  19.4867  12.7316  4.429787
  16389.175  16389.200  0.500  0.428555  19.489  12.6961  4.364903
  16390.045  16390.100  0.500  0.430853  19.4862  12.6651  4.304604
  16390.987  16391.000  0.500  0.433058  19.4704  12.627  4.246719
  16391.858  16391.900  0.500  0.434244  19.471  12.6124  4.211221
  16392.765  16392.800  0.500  0.434975  19.4668  12.6005  4.186955
  16393.659  16393.700  0.500  0.435274  19.4561  12.5898  4.178604
  16394.590  16394.600  0.500  0.435178  19.4608  12.5941  4.186385
  16395.485  16395.500  0.500  0.434685  19.4403  12.587  4.200394
  16396.403  16396.400  0.500  0.434004  19.428  12.5876  4.221161
  16397.299  16397.300  0.500  0.433434  19.4374  12.6009  4.251697
  16398.206  16398.200  0.500  0.432837  19.4107  12.591  4.270822
  16399.101  16399.100  0.500  0.432477  19.408  12.5939  4.292738
  16399.973  16400.000  0.500  0.432064  19.4028  12.5957  4.313045
  16400.928  16400.900  0.500  0.432024  19.3892  12.5874  4.326160
  16401.776  16401.800  0.500  0.431740  19.3757  12.5822  4.335469
  16402.707  16402.700  0.500  0.431567  19.3635  12.5764  4.344924
  16403.603  16403.600  0.500  0.431779  19.3587  12.5706  4.352020
  16404.511  16404.500  0.500  0.431758  19.3616  12.5728  4.360290
  16405.383  16405.400  0.500  0.431739  19.3732  12.5805  4.368017
  16406.303  16406.300  0.500  0.431723  19.3544  12.5685  4.370362
  16407.200  16407.200  0.500  0.431840  19.3672  12.5754  4.377018
  16408.084  16408.100  0.500  0.431916  19.3492  12.5628  4.378025
  16408.992  16409.000  0.500  0.431936  19.3405  12.5568  4.380109
  16409.865  16409.900  0.500  0.431755  19.3442  12.5615  4.384553
  16410.798  16410.800  0.500  0.431663  19.341  12.5606  4.389342
  16411.694  16411.700  0.500  0.431411  19.3244  12.553  4.390159
  16412.497  16412.500  0.500  0.431448  19.3232  12.5517  4.392972
  16415.554  16415.510  0.500  0.430626  19.3204  12.5602  4.403620
  16418.742  16418.700  0.500  0.430145  19.3734  12.6008  4.416702
  16422.086  16422.060  0.500  0.429657  19.3436  12.5875  4.399778
  16425.584  16425.580  0.500  0.429862  19.3583  12.5945  4.392831
  16429.285  16429.280  0.500  0.429887  19.34  12.5823  4.382137
  16433.164  16433.150  0.500  0.429990  19.3367  12.5789  4.377965
  16437.224  16437.200  0.500  0.429734  19.2909  12.5522  4.367136
  16441.427  16441.410  0.500  0.429567  19.2682  12.5396  4.365258
  16445.799  16445.790  0.500  0.429245  19.2318  12.5199  4.358772
  16450.386  16450.350  0.500  0.428481  19.2443  12.5377  4.368695
  16455.094  16455.080  0.500  0.427795  19.2214  12.5313  4.373775
  16459.996  16459.980  0.500  0.427309  19.1915  12.5179  4.380450
  16465.042  16465.050  0.500  0.427057  19.1778  12.5121  4.387149
  16470.318  16470.290  0.500  0.426894  19.1559  12.4999  4.390143
  16475.728  16475.710  0.500  0.426442  19.1365  12.4928  4.389963
  16481.308  16481.290  0.500  0.426052  19.0996  12.4736  4.386037
  16487.034  16487.050  0.500  0.425546  19.0815  12.4681  4.385171
  16493.015  16492.980  0.500  0.425052  19.0527  12.4554  4.384001
  16499.084  16499.080  0.500  0.424471  19.0224  12.4428  4.380635
  16505.384  16505.350  0.500  0.424289  19.0005  12.4308  4.379706
  16511.797  16511.790  0.500  0.423760  18.9772  12.4221  4.380770
  16518.442  16518.400  0.500  0.423052  18.9384  12.4055  4.378158
  16525.211  16525.190  0.500  0.422506  18.9228  12.4021  4.381532
  16532.131  16532.150  0.500  0.421861  18.8843  12.3848  4.381654
  16539.319  16539.270  0.500  0.421386  18.8554  12.3717  4.384654
  16546.562  16546.570  0.500  0.420949  18.8025  12.3424  4.380629
  16554.087  16554.050  0.500  0.420454  18.7952  12.3437  4.387483
  16561.704  16561.690  0.500  0.419495  18.7519  12.3271  4.384695
  16569.472  16569.500  0.500  0.418906  18.7307  12.3204  4.390013
  16577.512  16577.490  0.500  0.418206  18.6923  12.3037  4.390184
  16585.693  16585.650  0.500  0.417577  18.666  12.2942  4.390722
  16594.014  16593.970  0.500  0.417009  18.6393  12.2836  4.388635
  16602.489  16602.470  0.500  0.416502  18.5881  12.2561  4.383622
  16611.178  16611.150  0.500  0.415903  18.5553  12.2418  4.383992
  16620.022  16619.990  0.500  0.415451  18.5213  12.2249  4.386323
  16629.044  16629.000  0.500  0.414597  18.5023  12.2227  4.391983
  16638.235  16638.190  0.500  0.413795  18.4494  12.1976  4.388953
  16647.557  16647.550  0.500  0.413025  18.4185  12.1865  4.390621
  16657.132  16657.070  0.500  0.412207  18.38  12.171  4.390382
  16666.768  16666.770  0.500  0.411592  18.3329  12.1473  4.390186
  16676.707  16676.650  0.500  0.410962  18.2905  12.1268  4.390307
  16686.695  16686.690  0.500  0.410378  18.2452  12.1039  4.387117
  16696.963  16696.900  0.500  0.409371  18.1885  12.0784  4.384693
  16707.330  16707.290  0.500  0.408387  18.1041  12.0342  4.374038
  16717.845  16717.850  0.500  0.408294  15.6632  10.4126  3.789515
  16728.642  16728.580  0.500  0.406804  18.119  12.0632  4.399691
  16739.503  16739.480  0.500  0.406082  18.063  12.0346  4.397095
  16750.624  16750.550  0.500  0.405169  18.0107  12.0107  4.394415
  16761.847  16761.790  0.500  0.404339  17.9631  11.9889  4.394200
  16773.257  16773.210  0.500  0.403174  17.9086  11.9665  4.392793
  16784.843  16784.790  0.500  0.402292  17.8608  11.9451  4.393599
  16796.606  16796.550  0.500  0.401362  17.7931  11.9108  4.389603
  16808.521  16808.480  0.500  0.400413  17.7158  11.8703  4.381580
  16820.653  16820.580  0.500  0.399697  17.6283  11.8202  4.371908
  16832.864  16832.850  0.500  0.398463  16.9482  11.3782  4.215651
  16845.292  16845.290  0.500  0.397876  17.7807  11.9441  4.432953
  16857.975  16857.910  0.500  0.396901  17.6514  11.8688  4.411842
  16870.739  16870.690  0.500  0.395836  17.5915  11.8411  4.410170
  16883.673  16883.650  0.500  0.394808  17.5188  11.8043  4.405386
  16896.827  16896.780  0.500  0.393711  17.4531  11.773  4.401758
  16910.115  16910.080  0.500  0.392830  17.402  11.7489  4.402547
  16923.600  16923.550  0.500  0.391914  17.1288  11.575  4.344399
  16937.257  16937.200  0.500  0.390670  17.2777  11.6901  4.396719
  16951.049  16951.010  0.500  0.390305  14.6555  9.919591  3.737212
  16965.092  16965.000  0.500  0.388689  17.3808  11.7832  4.450099
  16979.258  16979.160  0.500  0.387762  17.2751  11.7224  4.436141
  16993.563  16993.490  0.500  0.386516  17.2142  11.6956  4.434763
  17008.032  17007.990  0.500  0.385371  17.1482  11.6641  4.430604
  17022.715  17022.660  0.500  0.384615  17.075  11.6232  4.424754
  17037.539  17037.500  0.500  0.383302  17.0112  11.595  4.422876
  17052.568  17052.520  0.500  0.382071  16.9382  11.5594  4.417892
  17067.738  17067.700  0.500  0.381090  16.7875  11.4679  4.393076
  17083.114  17083.060  0.500  0.379694  16.8855  11.5508  4.433864
  17098.633  17098.590  0.500  0.378429  16.8072  11.5119  4.428586
  17114.323  17114.290  0.500  0.377319  16.7419  11.4799  4.425756
  17130.182  17130.160  0.500  0.376217  16.6738  11.4458  4.423263
  17146.252  17146.210  0.500  0.375141  16.6123  11.4159  4.421110
  17162.468  17162.420  0.500  0.373718  16.5454  11.3861  4.420204
  17178.845  17178.810  0.500  0.372827  16.4893  11.3576  4.419016
  17195.409  17195.370  0.500  0.371418  16.4295  11.3323  4.417588
  17212.135  17212.100  0.500  0.370132  16.3621  11.3004  4.414202
  17229.023  17229.000  0.500  0.368951  16.2987  11.2699  4.412183
  17240.379  17240.360  0.500  0.368109  16.2527  11.2476  4.411667