File: xdidata/Nd/Nd-L3-Nd2TiO5.xdi
# XDI/1.0 BlueSky/1.10.0 BMM/2023-1.0-py310-tiled
# Beamline.name: BMM (06BM) -- Beamline for Materials Measurement (NIST)
# Beamline.xray_source: NSLS-II three-pole wiggler
# Beamline.collimation: paraboloid mirror, 5 nm Rh on 30 nm Pt
# Beamline.focusing: not in use
# Beamline.harmonic_rejection: flat mirror, Si stripe, pitch = 7.0 mrad relative to beam
# Beamline.software: Bluesky 1.10.0, Ophyd 1.7.0, DataBroker 2.0.0b13, Python 3.10.8, 2023-1.0-py310-tiled
# Detector.I0: 10 cm N2
# Detector.I1: 25 cm N2
# Detector.I2: 25 cm N2
# Element.symbol: Nd
# Element.edge: L3
# Element.reference: Nd
# Element.reference_material: Nd2O3
# Facility.name: NSLS-II
# Facility.energy: 3.0
# Facility.current: 400.9
# Facility.mode: top-off
# Facility.GUP: 123456
# Facility.SAF: 301027
# Facility.cycle: 2023-2
# Mono.name: Si(111)
# Mono.d_spacing: 3.13519
# Mono.encoder_resolution: 0.0000050 deg/ct
# Mono.angle_offset: 16.0754 deg
# Mono.scan_mode: pseudo channel cut
# Mono.scan_type: step
# Mono.direction: forward in energy
# Sample.name: Nd2TiO5
# Sample.prep: Powder in PEG pellet
# Sample.x: 149.848 mm
# Sample.y: 114.690 mm
# Sample.SDD_position: 205.000 mm
# Scan.experimenters: Bruce Ravel
# Scan.edge_energy: 6207.9
# Scan.start_time: 2023-05-08T16:36:55
# Scan.end_time: 2023-05-08T16:42:35
# Scan.transient_id: 75407
# Scan.uid: d5538fbf-234c-419e-ba19-43b0d85200ab
# Scan.plot_hint: ln(I0/It)  --  ln($5/$6)
# Column.1: energy eV
# Column.2: requested_energy eV
# Column.3: measurement_time seconds
# Column.4: xmu
# Column.5: I0 nA
# Column.6: It nA
# Column.7: Ir nA
# ///////////
# sample courtesy Martin Stennett, University of Sheffield
# -----------
# energy  requested_energy  measurement_time  xmu  I0  It  Ir
  6007.902  6007.900  0.500  2.147187  148.33  17.3267  2.404252
  6027.914  6027.900  0.500  2.121636  148.756  17.8263  2.521318
  6047.914  6047.900  0.500  2.095660  149.197  18.3496  2.645141
  6067.912  6067.900  0.500  2.069463  149.155  18.8314  2.765620
  6087.913  6087.900  0.500  2.043649  149.584  19.3794  2.898817
  6107.891  6107.900  0.500  2.017906  149.979  19.9373  3.038952
  6127.893  6127.900  0.500  1.993086  150.416  20.4978  3.180348
  6147.899  6147.900  0.500  1.968616  150.821  21.0622  3.326010
  6167.894  6167.900  0.500  1.944550  151.032  21.6054  3.467652
  6179.899  6179.900  0.500  1.930770  151.312  21.9458  3.554330
  6183.897  6183.900  0.500  1.926326  151.394  22.0554  3.580542
  6187.896  6187.900  0.500  1.922094  151.418  22.1525  3.603959
  6191.896  6191.900  0.500  1.918444  151.46  22.2397  3.621416
  6195.896  6195.900  0.500  1.915220  151.509  22.3187  3.631851
  6198.388  6198.400  0.500  1.914222  151.511  22.3413  3.628481
  6199.384  6199.400  0.500  1.913782  151.517  22.352  3.624323
  6200.386  6200.400  0.500  1.913892  151.535  22.3522  3.616212
  6201.390  6201.400  0.500  1.914113  151.53  22.3465  3.605644
  6202.387  6202.400  0.500  1.914562  151.524  22.3356  3.588880
  6203.387  6203.400  0.500  1.916874  151.537  22.2859  3.558866
  6204.390  6204.400  0.500  1.918628  151.556  22.2497  3.523147
  6205.390  6205.400  0.500  1.921497  151.559  22.1864  3.476320
  6206.390  6206.400  0.500  1.925530  151.572  22.099  3.420646
  6207.394  6207.400  0.500  1.930010  151.578  22.001  3.352756
  6208.391  6208.400  0.500  1.936667  151.581  21.8555  3.264906
  6209.397  6209.400  0.500  1.947280  151.588  21.6258  3.127259
  6210.394  6210.400  0.500  1.962472  151.586  21.2994  2.903739
  6211.393  6211.400  0.500  1.977825  151.61  20.9782  2.584499
  6212.397  6212.400  0.500  1.990201  151.598  20.7186  2.162507
  6213.397  6213.400  0.500  1.996154  151.6  20.5958  1.773315
  6214.397  6214.400  0.500  1.999248  151.598  20.5319  1.582564
  6215.398  6215.400  0.500  1.999111  151.594  20.5343  1.627742
  6216.397  6216.400  0.500  1.994858  151.604  20.6232  1.832845
  6217.403  6217.400  0.500  1.987282  151.612  20.7811  2.084922
  6218.401  6218.400  0.500  1.978176  151.61  20.9709  2.320584
  6219.399  6219.400  0.500  1.969582  151.628  21.1544  2.511335
  6220.403  6220.400  0.500  1.961401  151.629  21.3283  2.662404
  6221.400  6221.400  0.500  1.954757  151.628  21.4704  2.772575
  6222.402  6222.400  0.500  1.949559  151.64  21.5839  2.842790
  6223.405  6223.400  0.500  1.946047  151.643  21.6604  2.879751
  6224.406  6224.400  0.500  1.943119  151.651  21.725  2.896497
  6225.402  6225.400  0.500  1.941112  151.644  21.7676  2.905581
  6226.406  6226.400  0.500  1.939556  151.663  21.8042  2.916110
  6227.404  6227.400  0.500  1.938221  151.654  21.8321  2.931172
  6228.396  6228.400  0.500  1.937862  151.679  21.8435  2.949289
  6229.403  6229.400  0.500  1.936800  151.67  21.8655  2.970289
  6230.400  6230.400  0.500  1.935641  151.677  21.8919  2.986946
  6231.398  6231.400  0.500  1.935429  151.698  21.8994  2.994241
  6232.402  6232.400  0.500  1.934454  151.693  21.9202  2.996902
  6233.895  6233.890  0.500  1.932427  151.694  21.9648  2.985375
  6235.922  6235.910  0.500  1.929066  151.692  22.0384  2.949510
  6238.041  6238.020  0.500  1.926920  151.711  22.0885  2.908553
  6240.192  6240.200  0.500  1.925997  151.717  22.1098  2.867333
  6242.455  6242.460  0.500  1.926395  151.726  22.1024  2.827405
  6244.790  6244.790  0.500  1.927845  151.73  22.0708  2.798882
  6247.201  6247.200  0.500  1.928035  151.715  22.0645  2.798274
  6249.687  6249.680  0.500  1.925779  151.744  22.1185  2.827045
  6252.247  6252.240  0.500  1.921455  151.758  22.2164  2.875565
  6254.889  6254.880  0.500  1.915884  151.727  22.336  2.934668
  6257.606  6257.600  0.500  1.909908  151.74  22.4717  3.001761
  6260.393  6260.390  0.500  1.905444  151.745  22.573  3.055003
  6263.255  6263.250  0.500  1.901561  151.747  22.6612  3.090120
  6266.194  6266.190  0.500  1.897981  151.777  22.7469  3.110613
  6269.216  6269.210  0.500  1.894439  151.804  22.8317  3.128083
  6272.319  6272.310  0.500  1.891091  151.798  22.9075  3.140481
  6275.489  6275.480  0.500  1.888190  151.804  22.9749  3.143373
  6278.737  6278.730  0.500  1.885195  151.825  23.047  3.142282
  6282.053  6282.050  0.500  1.882292  151.827  23.1143  3.139668
  6285.457  6285.450  0.500  1.878692  151.8  23.1935  3.134818
  6288.937  6288.930  0.500  1.874831  151.796  23.2826  3.137864
  6292.490  6292.480  0.500  1.872085  151.786  23.3451  3.154128
  6296.119  6296.110  0.500  1.868919  151.791  23.4199  3.178001
  6299.818  6299.810  0.500  1.864723  152.315  23.5995  3.221286
  6303.599  6303.590  0.500  1.860074  152.285  23.7048  3.263733
  6307.457  6307.450  0.500  1.855605  152.284  23.8109  3.303779
  6311.389  6311.380  0.500  1.851190  152.262  23.9128  3.342923
  6315.397  6315.390  0.500  1.846797  152.281  24.0211  3.377192
  6319.489  6319.480  0.500  1.842132  152.247  24.128  3.399597
  6323.647  6323.640  0.500  1.837282  152.214  24.24  3.421981
  6327.889  6327.880  0.500  1.832777  152.21  24.3488  3.443746
  6332.200  6332.190  0.500  1.827423  152.198  24.4777  3.471143
  6336.588  6336.580  0.500  1.823307  152.164  24.573  3.492448
  6341.059  6341.050  0.500  1.818194  152.134  24.6942  3.517155
  6345.598  6345.590  0.500  1.813751  152.116  24.8012  3.540041
  6350.219  6350.210  0.500  1.809493  152.084  24.9018  3.555552
  6354.909  6354.900  0.500  1.804492  152.052  25.0213  3.576291
  6359.679  6359.670  0.500  1.799693  152.012  25.1351  3.606253
  6364.528  6364.520  0.500  1.794484  151.97  25.2595  3.643562
  6369.462  6369.450  0.500  1.788763  151.927  25.3971  3.688227
  6374.460  6374.450  0.500  1.783938  151.868  25.51  3.731719
  6379.529  6379.520  0.500  1.778295  151.835  25.6489  3.775308
  6384.674  6384.670  0.500  1.773273  151.79  25.7704  3.810751
  6389.906  6389.900  0.500  1.767671  151.736  25.9059  3.844228
  6395.218  6395.210  0.500  1.762345  151.686  26.0357  3.874939
  6400.599  6400.590  0.500  1.756381  151.613  26.1788  3.908448
  6406.058  6406.050  0.500  1.749997  151.514  26.3293  3.946591
  6411.587  6411.580  0.500  1.745045  151.45  26.4489  3.981785
  6417.196  6417.190  0.500  1.739311  151.383  26.5892  4.019772
  6422.872  6422.870  0.500  1.733224  151.286  26.7343  4.059819
  6428.644  6428.640  0.500  1.727448  151.159  26.8667  4.097521
  6434.478  6434.470  0.500  1.722232  150.991  26.977  4.130826
  6440.399  6440.390  0.500  1.716372  150.916  27.1222  4.168152
  6446.384  6446.380  0.500  1.709967  150.81  27.2773  4.207440
  6452.454  6452.450  0.500  1.703891  150.643  27.413  4.248716
  6458.596  6458.590  0.500  1.697361  148.14  27.1343  4.229456
  6464.815  6464.810  0.500  1.691206  147.818  27.2424  4.275686
  6471.104  6471.100  0.500  1.685156  150.233  27.8555  4.396507
  6477.477  6477.470  0.500  1.679542  150.023  27.9733  4.437380
  6483.936  6483.920  0.500  1.673280  149.933  28.132  4.483253
  6490.460  6490.450  0.500  1.666906  149.815  28.2896  4.526140
  6497.061  6497.050  0.500  1.660493  149.653  28.4409  4.568534
  6503.727  6503.720  0.500  1.653718  149.504  28.6056  4.617058
  6510.480  6510.470  0.500  1.646901  149.314  28.7647  4.667697
  6517.310  6517.300  0.500  1.639848  149.16  28.9384  4.722092
  6524.218  6524.210  0.500  1.633552  148.972  29.0845  4.772421
  6531.199  6531.190  0.500  1.626920  148.778  29.24  4.822888
  6538.262  6538.250  0.500  1.620175  148.571  29.3968  4.873365
  6545.382  6545.380  0.500  1.613346  148.309  29.5462  4.923128
  6552.599  6552.590  0.500  1.606803  148.063  29.6908  4.971630
  6559.888  6559.880  0.500  1.599804  147.836  29.8535  5.026417
  6567.245  6567.240  0.500  1.592730  147.61  30.0193  5.084521
  6574.691  6574.680  0.500  1.585904  147.408  30.1836  5.145774
  6582.201  6582.190  0.500  1.578444  147.148  30.3561  5.206099
  6589.792  6589.780  0.500  1.571416  146.881  30.5146  5.260256
  6597.458  6597.450  0.500  1.564152  146.625  30.6836  5.319343
  6605.198  6605.190  0.500  1.556943  146.348  30.8472  5.377218
  6613.023  6613.010  0.500  1.549781  146.122  31.021  5.436561
  6620.919  6620.910  0.500  1.542772  145.817  31.1738  5.493764
  6628.915  6628.880  0.500  1.535701  145.496  31.326  5.553175
  6636.964  6636.930  0.500  1.528183  145.32  31.5242  5.621250
  6645.083  6645.050  0.500  1.521060  145.054  31.6915  5.686593
  6653.278  6653.250  0.500  1.513311  144.836  31.89  5.757841
  6661.545  6661.530  0.500  1.505967  144.604  32.0736  5.824487
  6669.865  6669.880  0.500  1.498635  144.314  32.2448  5.890379
  6678.350  6678.310  0.500  1.491491  144.04  32.4143  5.959788
  6686.805  6686.810  0.500  1.483718  143.815  32.6162  6.033638
  6695.375  6695.390  0.500  1.476473  143.494  32.78  6.100421
  6699.692  6699.710  0.500  1.472619  143.332  32.8696  6.134119