File: xdidata/Nd/Nd-L3-NeodymiumOxide.xdi
# XDI/1.0 BlueSky/1.10.0 BMM/2023-1.0-py310-tiled
# Beamline.name: BMM (06BM) -- Beamline for Materials Measurement (NIST)
# Beamline.xray_source: NSLS-II three-pole wiggler
# Beamline.collimation: paraboloid mirror, 5 nm Rh on 30 nm Pt
# Beamline.focusing: not in use
# Beamline.harmonic_rejection: flat mirror, Si stripe, pitch = 7.0 mrad relative to beam
# Beamline.software: Bluesky 1.10.0, Ophyd 1.7.0, DataBroker 2.0.0b13, Python 3.10.8, 2023-1.0-py310-tiled
# Detector.I0: 10 cm N2
# Detector.I1: 25 cm N2
# Detector.I2: 25 cm N2
# Element.symbol: Nd
# Element.edge: L3
# Element.reference: Nd
# Element.reference_material: Nd2O3
# Facility.name: NSLS-II
# Facility.energy: 3.0
# Facility.current: 399.3
# Facility.mode: top-off
# Facility.GUP: 301027
# Facility.SAF: 310583
# Facility.cycle: 2023-2
# Mono.name: Si(111)
# Mono.d_spacing: 3.13519
# Mono.encoder_resolution: 0.0000050 deg/ct
# Mono.angle_offset: 16.0754 deg
# Mono.scan_mode: pseudo channel cut
# Mono.scan_type: step
# Mono.direction: forward in energy
# Sample.name: Nd2O3
# Sample.prep: PEG pellet
# Sample.x: 109.138 mm
# Sample.y: 153.150 mm
# Sample.SDD_position: 205.000 mm
# Scan.experimenters: Bruce Ravel
# Scan.edge_energy: 6207.9
# Scan.start_time: 2023-05-28T12:05:48
# Scan.end_time: 2023-05-28T12:12:27
# Scan.transient_id: 78665
# Scan.uid: 5ee119b5-a419-41d0-89a6-3679bcaa33e3
# Scan.plot_hint: ln(It/Ir)  --  ln($6/$7)
# Column.1: energy eV
# Column.2: requested_energy eV
# Column.3: measurement_time seconds
# Column.4: xmu
# Column.5: I0 nA
# Column.6: It nA
# Column.7: Ir nA
# ///////////
# sample courtesy Martin Stennett, University of Sheffield
# -----------
# energy  requested_energy  measurement_time  xmu  I0  It  Ir
  6007.905  6007.900  0.500  2.469902  145.563  90.9783  7.696142
  6037.929  6037.900  0.500  2.433148  146.974  93.4202  8.198567
  6067.913  6067.900  0.500  2.397357  147.438  95.286  8.667021
  6097.912  6097.900  0.500  2.362062  148.391  97.4946  9.186493
  6127.908  6127.900  0.500  2.327715  149.298  99.623  9.715065
  6157.892  6157.900  0.500  2.295577  149.711  101.511  10.2225
  6179.896  6179.900  0.500  2.273520  150.257  103.067  10.6106
  6185.891  6185.900  0.500  2.268506  150.401  103.486  10.7073
  6191.891  6191.900  0.500  2.265037  150.519  103.885  10.786
  6197.896  6197.900  0.500  2.265791  150.64  104.281  10.819
  6198.789  6198.800  0.500  2.266858  150.631  104.35  10.8146
  6199.688  6199.700  0.500  2.268149  150.639  104.341  10.7996
  6200.590  6200.600  0.500  2.269890  150.646  104.384  10.7854
  6201.491  6201.500  0.500  2.272186  150.676  104.492  10.7717
  6202.394  6202.400  0.500  2.275831  150.66  104.476  10.7309
  6203.295  6203.300  0.500  2.280718  150.687  104.532  10.6843
  6204.193  6204.200  0.500  2.287772  150.695  104.668  10.623
  6205.097  6205.100  0.500  2.296834  150.727  104.787  10.5392
  6205.996  6206.000  0.500  2.306813  150.753  104.749  10.4307
  6206.896  6206.900  0.500  2.319347  150.755  104.9  10.3157
  6207.796  6207.800  0.500  2.334203  150.74  104.885  10.162
  6208.697  6208.700  0.500  2.354169  150.764  104.944  9.966739
  6209.600  6209.600  0.500  2.385804  150.765  104.987  9.660410
  6210.494  6210.500  0.500  2.438976  150.762  104.987  9.160161
  6211.400  6211.400  0.500  2.528203  150.781  105.037  8.382216
  6212.301  6212.300  0.500  2.668445  150.793  105.222  7.298227
  6213.200  6213.200  0.500  2.846387  150.804  105.203  6.107422
  6214.100  6214.100  0.500  2.989633  150.805  105.222  5.293306
  6214.998  6215.000  0.500  3.030189  150.804  105.311  5.087215
  6215.900  6215.900  0.500  2.963929  150.786  105.368  5.438648
  6216.799  6216.800  0.500  2.850487  150.827  105.384  6.092911
  6217.702  6217.700  0.500  2.743084  150.858  105.495  6.790896
  6218.603  6218.600  0.500  2.655173  150.852  105.48  7.413858
  6219.501  6219.500  0.500  2.589413  150.856  105.6  7.926799
  6220.401  6220.400  0.500  2.541018  150.87  105.661  8.324608
  6221.298  6221.300  0.500  2.506255  150.874  105.704  8.622651
  6222.199  6222.200  0.500  2.483933  150.9  105.738  8.820084
  6223.100  6223.100  0.500  2.471489  150.877  105.778  8.933904
  6224.000  6224.000  0.500  2.466097  150.911  105.882  8.991078
  6224.901  6224.900  0.500  2.464236  150.911  105.882  9.007820
  6225.803  6225.800  0.500  2.462892  150.929  105.96  9.026510
  6226.698  6226.700  0.500  2.460746  150.928  105.96  9.045930
  6227.602  6227.600  0.500  2.456784  150.951  106.06  9.090381
  6228.502  6228.500  0.500  2.451399  150.965  106.079  9.141150
  6229.398  6229.400  0.500  2.445524  150.979  106.119  9.198436
  6230.299  6230.300  0.500  2.440817  150.963  106.171  9.246401
  6231.201  6231.200  0.500  2.437746  150.972  106.215  9.278680
  6232.098  6232.100  0.500  2.436790  150.978  106.31  9.295897
  6232.900  6232.900  0.500  2.438034  151.423  106.704  9.318704
  6235.921  6235.910  0.500  2.456850  151.504  106.874  9.159614
  6239.114  6239.100  0.500  2.481296  151.584  107.111  8.958202
  6242.479  6242.460  0.500  2.502814  151.63  107.329  8.785349
  6245.976  6245.980  0.500  2.512714  151.593  107.498  8.712470
  6249.681  6249.680  0.500  2.503560  151.692  107.743  8.812658
  6253.547  6253.550  0.500  2.482903  151.712  108.001  9.018099
  6257.603  6257.600  0.500  2.456838  151.76  108.224  9.275381
  6261.811  6261.810  0.500  2.437250  151.785  108.419  9.475877
  6266.194  6266.190  0.500  2.429884  151.869  108.708  9.571388
  6270.750  6270.750  0.500  2.426349  151.923  109.027  9.633500
  6275.489  6275.480  0.500  2.427256  151.96  109.32  9.650611
  6280.386  6280.380  0.500  2.431288  152.056  109.609  9.637189
  6285.453  6285.450  0.500  2.437627  152.098  109.955  9.606547
  6290.700  6290.690  0.500  2.438804  152.15  110.247  9.620737
  6296.122  6296.110  0.500  2.431525  152.212  110.573  9.719636
  6301.697  6301.690  0.500  2.420211  152.258  110.873  9.856954
  6307.462  6307.450  0.500  2.406554  152.301  111.211  10.023
  6313.392  6313.380  0.500  2.394061  152.368  111.546  10.1795
  6319.487  6319.480  0.500  2.387872  152.423  111.887  10.274
  6325.756  6325.750  0.500  2.383933  152.444  112.26  10.3489
  6332.198  6332.190  0.500  2.378752  152.494  112.652  10.439
  6338.811  6338.800  0.500  2.374079  152.52  112.969  10.5174
  6345.600  6345.590  0.500  2.369328  152.58  113.441  10.6117
  6352.562  6352.550  0.500  2.367401  152.612  113.767  10.6627
  6359.679  6359.670  0.500  2.361421  152.664  114.253  10.7725
  6366.976  6366.970  0.500  2.351005  152.726  114.655  10.9235
  6374.462  6374.450  0.500  2.338308  152.737  115.086  11.1047
  6382.102  6382.090  0.500  2.327831  152.746  115.421  11.2543
  6389.910  6389.900  0.500  2.320376  152.727  115.826  11.3784
  6397.897  6397.890  0.500  2.313986  152.744  116.277  11.4959
  6406.064  6406.050  0.500  2.306866  152.715  116.683  11.6185
  6414.382  6414.370  0.500  2.298483  152.733  117.108  11.7589
  6422.884  6422.870  0.500  2.290267  152.717  117.531  11.8988
  6431.563  6431.550  0.500  2.281944  152.619  117.928  12.0387
  6440.397  6440.390  0.500  2.274562  152.56  118.374  12.1738
  6449.405  6449.400  0.500  2.266317  149.911  116.721  12.1032
  6458.600  6458.590  0.500  2.256357  149.459  116.814  12.2341
  6467.957  6467.950  0.500  2.244886  152.169  119.426  12.6519
  6477.480  6477.470  0.500  2.234931  152.029  119.818  12.8204
  6487.180  6487.170  0.500  2.226364  151.97  120.265  12.979
  6497.063  6497.050  0.500  2.218563  151.817  120.593  13.1164
  6507.101  6507.090  0.500  2.209094  151.622  120.906  13.2755
  6517.315  6517.300  0.500  2.198663  151.413  121.319  13.4605
  6527.718  6527.690  0.500  2.188216  151.222  121.677  13.6421
  6538.242  6538.250  0.500  2.178668  151.002  122.064  13.8167
  6548.970  6548.980  0.500  2.168883  150.69  122.35  13.9852
  6559.870  6559.880  0.500  2.158894  150.38  122.6  14.1545
  6570.965  6570.950  0.500  2.147430  150.157  122.914  14.3544
  6582.201  6582.190  0.500  2.136158  149.902  123.278  14.5601
  6593.593  6593.610  0.500  2.125814  149.579  123.56  14.7451
  6605.179  6605.190  0.500  2.115249  149.564  124.199  14.9788
  6616.959  6616.950  0.500  2.104921  149.307  124.546  15.1766
  6628.865  6628.880  0.500  2.094224  148.88  124.766  15.3669
  6640.968  6640.980  0.500  2.082728  148.712  125.193  15.5977
  6653.261  6653.250  0.500  2.071179  148.388  125.523  15.8206
  6665.671  6665.690  0.500  2.060245  148.098  125.85  16.0361
  6678.298  6678.310  0.500  2.048715  147.738  126.153  16.2612
  6691.084  6691.090  0.500  2.037211  147.43  126.441  16.4868
  6699.695  6699.710  0.500  2.029941  147.153  126.637  16.6329