File: xdidata/Nd/Nd-L3-Nd2Ti2O7.xdi
# XDI/1.0 BlueSky/1.10.0 BMM/2023-1.0-py310-tiled
# Beamline.name: BMM (06BM) -- Beamline for Materials Measurement (NIST)
# Beamline.xray_source: NSLS-II three-pole wiggler
# Beamline.collimation: paraboloid mirror, 5 nm Rh on 30 nm Pt
# Beamline.focusing: not in use
# Beamline.harmonic_rejection: flat mirror, Si stripe, pitch = 7.0 mrad relative to beam
# Beamline.software: Bluesky 1.10.0, Ophyd 1.7.0, DataBroker 2.0.0b13, Python 3.10.8, 2023-1.0-py310-tiled
# Detector.I0: 10 cm N2
# Detector.I1: 25 cm N2
# Detector.I2: 25 cm N2
# Element.symbol: Nd
# Element.edge: L3
# Element.reference: Nd
# Element.reference_material: Nd2O3
# Facility.name: NSLS-II
# Facility.energy: 3.0
# Facility.current: 399.7
# Facility.mode: top-off
# Facility.GUP: 123456
# Facility.SAF: 301027
# Facility.cycle: 2023-2
# Mono.name: Si(111)
# Mono.d_spacing: 3.13519
# Mono.encoder_resolution: 0.0000050 deg/ct
# Mono.angle_offset: 16.0754 deg
# Mono.scan_mode: pseudo channel cut
# Mono.scan_type: step
# Mono.direction: forward in energy
# Sample.name: Nd2Ti2O7
# Sample.prep: Powder in PEG pellet
# Sample.x: 149.848 mm
# Sample.y: 114.690 mm
# Sample.SDD_position: 205.000 mm
# Scan.experimenters: Bruce Ravel
# Scan.edge_energy: 6207.9
# Scan.start_time: 2023-05-08T16:49:36
# Scan.end_time: 2023-05-08T16:55:18
# Scan.transient_id: 75417
# Scan.uid: 89f6c106-4035-4175-b5f3-956aafc9ea55
# Scan.plot_hint: ln(I0/It)  --  ln($5/$6)
# Column.1: energy eV
# Column.2: requested_energy eV
# Column.3: measurement_time seconds
# Column.4: xmu
# Column.5: I0 nA
# Column.6: It nA
# Column.7: Ir nA
# ///////////
# sample courtesy Martin Stennett, University of Sheffield
# -----------
# energy  requested_energy  measurement_time  xmu  I0  It  Ir
  6007.905  6007.900  0.500  2.432882  148.099  13.0007  1.812123
  6027.913  6027.900  0.500  2.403820  148.521  13.4222  1.907367
  6047.914  6047.900  0.500  2.375033  148.996  13.8583  2.007033
  6067.910  6067.900  0.500  2.346655  148.934  14.2513  2.103118
  6087.907  6087.900  0.500  2.318719  149.359  14.6969  2.208921
  6107.908  6107.900  0.500  2.291268  149.838  15.1544  2.318949
  6127.883  6127.900  0.500  2.264119  150.751  15.6663  2.439802
  6147.886  6147.900  0.500  2.237076  151.154  16.1387  2.558409
  6167.890  6167.900  0.500  2.211107  151.361  16.5861  2.673761
  6179.893  6179.900  0.500  2.195856  151.678  16.8761  2.744544
  6183.888  6183.900  0.500  2.191667  151.724  16.9522  2.763713
  6187.890  6187.900  0.500  2.187431  151.753  17.0274  2.780968
  6191.890  6191.900  0.500  2.182948  151.801  17.1094  2.797431
  6195.895  6195.900  0.500  2.180045  151.843  17.1638  2.805049
  6198.386  6198.400  0.500  2.179180  151.844  17.1788  2.802133
  6199.389  6199.400  0.500  2.179199  151.852  17.1793  2.798055
  6200.384  6200.400  0.500  2.179325  151.866  17.1788  2.791905
  6201.385  6201.400  0.500  2.180508  151.871  17.159  2.781395
  6202.389  6202.400  0.500  2.181969  151.856  17.1323  2.766541
  6203.391  6203.400  0.500  2.184494  151.871  17.0907  2.742977
  6204.386  6204.400  0.500  2.188428  151.873  17.0239  2.708608
  6205.391  6205.400  0.500  2.192738  151.86  16.9492  2.669056
  6206.392  6206.400  0.500  2.198754  151.881  16.8499  2.621773
  6207.390  6207.400  0.500  2.207084  151.882  16.7103  2.560621
  6208.392  6208.400  0.500  2.218252  151.89  16.5255  2.482776
  6209.392  6209.400  0.500  2.237613  151.898  16.2095  2.358343
  6210.391  6210.400  0.500  2.270419  151.895  15.686  2.154364
  6211.395  6211.400  0.500  2.318667  151.91  14.9486  1.855464
  6212.396  6212.400  0.500  2.374447  151.904  14.1371  1.490319
  6213.400  6213.400  0.500  2.422334  151.913  13.4769  1.169053
  6214.400  6214.400  0.500  2.446817  151.905  13.1502  1.017080
  6215.394  6215.400  0.500  2.441614  151.885  13.2171  1.048203
  6216.400  6216.400  0.500  2.413765  151.878  13.5897  1.209558
  6217.394  6217.400  0.500  2.377039  151.901  14.1003  1.416124
  6218.399  6218.400  0.500  2.341303  151.9  14.6131  1.621445
  6219.399  6219.400  0.500  2.311606  151.915  15.0551  1.794100
  6220.398  6220.400  0.500  2.287721  151.911  15.4186  1.932569
  6221.402  6221.400  0.500  2.271360  151.907  15.6725  2.033588
  6222.403  6222.400  0.500  2.261510  151.903  15.8273  2.095840
  6223.400  6223.400  0.500  2.257015  151.914  15.8997  2.124530
  6224.400  6224.400  0.500  2.254991  151.916  15.9321  2.135696
  6225.409  6225.400  0.500  2.254930  151.924  15.9339  2.138656
  6226.398  6226.400  0.500  2.253994  151.922  15.9486  2.144017
  6227.399  6227.400  0.500  2.252342  151.94  15.9769  2.155707
  6228.402  6228.400  0.500  2.250024  151.947  16.0147  2.173145
  6229.399  6229.400  0.500  2.248232  151.93  16.0416  2.189796
  6230.402  6230.400  0.500  2.246389  151.931  16.0713  2.204271
  6231.403  6231.400  0.500  2.244523  151.932  16.1014  2.213550
  6232.401  6232.400  0.500  2.242651  151.941  16.1326  2.217033
  6233.900  6233.890  0.500  2.240681  151.939  16.1642  2.208464
  6235.919  6235.910  0.500  2.239119  151.93  16.1884  2.178849
  6238.031  6238.020  0.500  2.239404  151.959  16.187  2.143028
  6240.210  6240.200  0.500  2.241689  151.979  16.1521  2.105832
  6242.468  6242.460  0.500  2.245866  151.979  16.0848  2.068182
  6244.790  6244.790  0.500  2.248550  151.988  16.0426  2.045024
  6247.206  6247.200  0.500  2.250237  151.99  16.0159  2.041614
  6249.690  6249.680  0.500  2.248459  152.012  16.0466  2.061232
  6252.251  6252.240  0.500  2.242621  152.017  16.1411  2.099580
  6254.890  6254.880  0.500  2.234031  152.017  16.2804  2.149502
  6257.612  6257.600  0.500  2.225703  152.03  16.418  2.204868
  6260.399  6260.390  0.500  2.217268  152.023  16.5562  2.252400
  6263.258  6263.250  0.500  2.211649  152.033  16.6507  2.282844
  6266.200  6266.190  0.500  2.206164  152.065  16.7458  2.302340
  6269.222  6269.210  0.500  2.202483  152.096  16.8109  2.315158
  6272.324  6272.310  0.500  2.199072  152.09  16.8677  2.324486
  6275.497  6275.480  0.500  2.196204  152.11  16.9184  2.326720
  6278.737  6278.730  0.500  2.194123  152.119  16.9546  2.324340
  6282.055  6282.050  0.500  2.192861  152.143  16.9788  2.318363
  6285.454  6285.450  0.500  2.190908  152.12  17.0093  2.310534
  6288.940  6288.930  0.500  2.188434  152.11  17.0503  2.310425
  6292.490  6292.480  0.500  2.184967  152.12  17.1107  2.324144
  6296.119  6296.110  0.500  2.180185  152.138  17.1948  2.345665
  6299.818  6299.810  0.500  2.174588  152.13  17.2903  2.372675
  6303.599  6303.590  0.500  2.168710  152.115  17.3905  2.406024
  6307.455  6307.450  0.500  2.162918  152.11  17.491  2.439019
  6311.389  6311.380  0.500  2.157239  152.113  17.5909  2.472700
  6315.400  6315.390  0.500  2.152195  152.111  17.6797  2.498004
  6319.486  6319.480  0.500  2.147167  152.084  17.7656  2.515984
  6323.648  6323.640  0.500  2.142979  152.048  17.8359  2.530515
  6327.889  6327.880  0.500  2.138717  152.032  17.9102  2.546497
  6332.198  6332.190  0.500  2.133703  152.009  17.9976  2.565518
  6336.589  6336.580  0.500  2.128751  151.989  18.0845  2.583779
  6341.059  6341.050  0.500  2.123682  151.966  18.1737  2.601388
  6345.598  6345.590  0.500  2.118117  151.933  18.2711  2.621385
  6350.222  6350.210  0.500  2.112235  151.9  18.375  2.637314
  6354.907  6354.900  0.500  2.106793  151.88  18.4727  2.653598
  6359.677  6359.670  0.500  2.100536  151.838  18.5835  2.679211
  6364.528  6364.520  0.500  2.095006  151.815  18.6839  2.709241
  6369.460  6369.450  0.500  2.089961  152.361  18.8458  2.750988
  6374.458  6374.450  0.500  2.084682  152.331  18.9419  2.785082
  6379.528  6379.520  0.500  2.079966  152.302  19.0278  2.815545
  6384.674  6384.670  0.500  2.073754  152.241  19.1386  2.844430
  6389.908  6389.900  0.500  2.067507  152.188  19.252  2.871455
  6395.221  6395.210  0.500  2.060524  152.123  19.3785  2.898375
  6400.601  6400.590  0.500  2.053641  152.067  19.5051  2.926920
  6406.058  6406.050  0.500  2.046435  151.995  19.637  2.957618
  6411.588  6411.580  0.500  2.039819  151.957  19.7623  2.990003
  6417.196  6417.190  0.500  2.033837  151.891  19.8722  3.019661
  6422.877  6422.870  0.500  2.027793  151.799  19.9806  3.049509
  6428.648  6428.640  0.500  2.021976  151.677  20.081  3.077530
  6434.478  6434.470  0.500  2.015769  151.507  20.1835  3.105604
  6440.395  6440.390  0.500  2.009624  151.434  20.2981  3.134550
  6446.389  6446.380  0.500  2.003018  151.335  20.4192  3.165915
  6452.460  6452.450  0.500  1.995975  151.173  20.5416  3.199000
  6458.596  6458.590  0.500  1.989191  148.52  20.3185  3.182381
  6464.815  6464.810  0.500  1.981665  148.428  20.4592  3.226482
  6471.109  6471.100  0.500  1.975405  150.785  20.9147  3.316916
  6477.477  6477.470  0.500  1.968275  150.596  21.0379  3.353546
  6483.927  6483.920  0.500  1.960968  150.522  21.1817  3.392591
  6490.460  6490.450  0.500  1.953602  150.395  21.3204  3.427297
  6497.060  6497.050  0.500  1.946568  150.239  21.4486  3.460969
  6503.730  6503.720  0.500  1.939115  150.117  21.5915  3.501062
  6510.482  6510.470  0.500  1.931998  149.955  21.7222  3.541339
  6517.326  6517.300  0.500  1.924442  149.786  21.8623  3.584779
  6524.240  6524.210  0.500  1.917868  149.612  21.9809  3.623607
  6531.190  6531.190  0.500  1.909889  149.403  22.1261  3.666793
  6538.260  6538.250  0.500  1.902216  149.184  22.2639  3.708030
  6545.404  6545.380  0.500  1.895113  148.945  22.3866  3.747359
  6552.617  6552.590  0.500  1.887445  148.694  22.5209  3.788707
  6559.895  6559.880  0.500  1.879590  148.449  22.6612  3.832013
  6567.238  6567.240  0.500  1.872189  148.231  22.7959  3.878406
  6574.674  6574.680  0.500  1.864539  148.008  22.9365  3.926964
  6582.187  6582.190  0.500  1.856243  147.788  23.0932  3.977619
  6589.788  6589.780  0.500  1.848374  147.518  23.2331  4.023209
  6597.434  6597.450  0.500  1.840993  147.277  23.3669  4.068134
  6605.209  6605.190  0.500  1.832503  147.001  23.5219  4.119036
  6613.023  6613.010  0.500  1.824576  146.802  23.6771  4.167707
  6620.921  6620.910  0.500  1.816064  146.5  23.8303  4.217348
  6628.896  6628.880  0.500  1.808248  146.202  23.9684  4.266353
  6636.929  6636.930  0.500  1.800127  146.04  24.1372  4.322704
  6645.034  6645.050  0.500  1.791462  145.767  24.3017  4.379758
  6653.265  6653.250  0.500  1.783520  145.525  24.4549  4.434420
  6661.515  6661.530  0.500  1.775391  145.256  24.6089  4.488207
  6669.865  6669.880  0.500  1.767320  144.987  24.7624  4.543035
  6678.298  6678.310  0.500  1.759257  144.703  24.9139  4.598819
  6686.794  6686.810  0.500  1.750602  144.462  25.0887  4.659923
  6695.387  6695.390  0.500  1.742226  144.165  25.2475  4.717309
  6699.693  6699.710  0.500  1.737974  144.009  25.3277  4.744936