File: xdidata/Nd/Nd-L1-NeodymiumOxide.xdi
# XDI/1.0 BlueSky/1.10.0 BMM/2023-1.0-py310-tiled
# Beamline.name: BMM (06BM) -- Beamline for Materials Measurement (NIST)
# Beamline.xray_source: NSLS-II three-pole wiggler
# Beamline.collimation: paraboloid mirror, 5 nm Rh on 30 nm Pt
# Beamline.focusing: not in use
# Beamline.harmonic_rejection: flat mirror, Si stripe, pitch = 7.0 mrad relative to beam
# Beamline.software: Bluesky 1.10.0, Ophyd 1.7.0, DataBroker 2.0.0b13, Python 3.10.8, 2023-1.0-py310-tiled
# Detector.I0: 10 cm N2
# Detector.I1: 25 cm N2
# Detector.I2: 25 cm N2
# Element.symbol: Nd
# Element.edge: L1
# Element.reference: Nd
# Element.reference_material: Nd2O3
# Facility.name: NSLS-II
# Facility.energy: 3.0
# Facility.current: 400.4
# Facility.mode: top-off
# Facility.GUP: 301027
# Facility.SAF: 310583
# Facility.cycle: 2023-2
# Mono.name: Si(111)
# Mono.d_spacing: 3.13519
# Mono.encoder_resolution: 0.0000050 deg/ct
# Mono.angle_offset: 16.0754 deg
# Mono.scan_mode: pseudo channel cut
# Mono.scan_type: step
# Mono.direction: forward in energy
# Sample.name: Nd2O3
# Sample.prep: PEG pellet
# Sample.x: 109.138 mm
# Sample.y: 153.150 mm
# Sample.SDD_position: 205.000 mm
# Scan.experimenters: Bruce Ravel
# Scan.edge_energy: 7126.0
# Scan.start_time: 2023-05-28T13:28:20
# Scan.end_time: 2023-05-28T13:36:36
# Scan.transient_id: 78721
# Scan.uid: 20212404-7afd-4361-88be-f6cd3da5e71a
# Scan.plot_hint: ln(It/Ir)  --  ln($6/$7)
# Column.1: energy eV
# Column.2: requested_energy eV
# Column.3: measurement_time seconds
# Column.4: xmu
# Column.5: I0 nA
# Column.6: It nA
# Column.7: Ir nA
# ///////////
# sample courtesy Martin Stennett, University of Sheffield
# -----------
# energy  requested_energy  measurement_time  xmu  I0  It  Ir
  6926.002  6926.000  0.500  1.966616  152.074  141.653  19.8214
  6956.008  6956.000  0.500  1.944803  152.257  143.243  20.486
  6985.995  6986.000  0.500  1.920845  152.383  144.664  21.1909
  7016.014  7016.000  0.500  1.899889  152.511  146.172  21.8651
  7046.017  7046.000  0.500  1.877610  152.635  147.634  22.5813
  7076.015  7076.000  0.500  1.856877  151.66  148.008  23.1129
  7098.016  7098.000  0.500  1.841108  152.639  149.94  23.7868
  7104.003  7104.000  0.500  1.837218  152.63  150.207  23.9219
  7110.001  7110.000  0.500  1.833409  152.581  150.442  24.0508
  7116.004  7116.000  0.500  1.829847  152.332  150.44  24.1363
  7116.885  7116.900  0.500  1.829250  152.295  150.466  24.1548
  7117.784  7117.800  0.500  1.828806  152.243  150.369  24.15
  7118.685  7118.700  0.500  1.828328  152.2  150.376  24.1627
  7119.583  7119.600  0.500  1.827918  152.156  150.335  24.166
  7120.488  7120.500  0.500  1.827529  152.13  150.371  24.1812
  7121.391  7121.400  0.500  1.827146  152.097  150.414  24.1974
  7122.292  7122.300  0.500  1.826762  152.054  150.357  24.1976
  7123.195  7123.200  0.500  1.826508  152.005  150.367  24.2053
  7124.090  7124.100  0.500  1.826220  151.973  150.381  24.2145
  7124.994  7125.000  0.500  1.826023  151.926  150.432  24.2275
  7125.896  7125.900  0.500  1.825941  151.877  150.382  24.2214
  7126.798  7126.800  0.500  1.825835  151.815  150.33  24.2156
  7127.694  7127.700  0.500  1.826010  151.785  150.348  24.2143
  7128.595  7128.600  0.500  1.826499  151.715  150.356  24.2037
  7129.496  7129.500  0.500  1.827531  151.658  150.339  24.1761
  7130.397  7130.400  0.500  1.828991  151.57  150.271  24.1299
  7131.296  7131.300  0.500  1.830911  151.495  150.259  24.0816
  7132.200  7132.200  0.500  1.832493  151.446  150.197  24.0337
  7133.095  7133.100  0.500  1.833581  151.41  150.243  24.0149
  7133.993  7134.000  0.500  1.834634  151.41  150.299  23.9985
  7134.899  7134.900  0.500  1.836194  151.416  150.337  23.9672
  7135.799  7135.800  0.500  1.838601  151.404  150.383  23.9169
  7136.681  7136.700  0.500  1.841651  151.848  150.849  23.918
  7137.620  7137.600  0.500  1.845951  151.851  150.865  23.8178
  7138.534  7138.500  0.500  1.851177  151.849  150.887  23.6972
  7139.405  7139.400  0.500  1.857286  151.82  150.889  23.5532
  7140.302  7140.300  0.500  1.864445  151.8  150.934  23.3921
  7141.206  7141.200  0.500  1.871793  151.82  150.989  23.2292
  7142.093  7142.100  0.500  1.878516  151.815  151.037  23.081
  7143.000  7143.000  0.500  1.884225  151.81  151.074  22.9552
  7143.906  7143.900  0.500  1.887893  151.817  151.087  22.8732
  7144.803  7144.800  0.500  1.889281  151.814  151.204  22.8591
  7145.701  7145.700  0.500  1.888447  151.81  151.158  22.8712
  7146.596  7146.600  0.500  1.886056  151.824  151.218  22.935
  7147.497  7147.500  0.500  1.882542  151.82  151.301  23.0285
  7148.400  7148.400  0.500  1.878493  151.806  151.274  23.1177
  7149.304  7149.300  0.500  1.874427  151.812  151.306  23.2168
  7150.195  7150.200  0.500  1.870739  151.811  151.355  23.3101
  7150.996  7151.000  0.500  1.867860  151.813  151.431  23.3891
  7154.027  7154.010  0.500  1.861022  151.805  151.531  23.5652
  7157.215  7157.200  0.500  1.855969  151.787  151.668  23.7059
  7160.576  7160.560  0.500  1.849260  151.771  151.788  23.8844
  7164.090  7164.080  0.500  1.842339  151.703  151.916  24.0705
  7167.789  7167.780  0.500  1.837918  151.618  151.93  24.1794
  7171.655  7171.650  0.500  1.835814  151.574  152.041  24.248
  7175.708  7175.700  0.500  1.837085  151.515  152.162  24.2366
  7179.915  7179.910  0.500  1.838925  151.531  152.332  24.219
  7184.292  7184.290  0.500  1.838721  151.487  152.516  24.2532
  7188.859  7188.850  0.500  1.836706  151.482  152.692  24.3302
  7193.595  7193.580  0.500  1.834095  151.001  152.415  24.3495
  7198.484  7198.480  0.500  1.829841  151.265  152.86  24.5247
  7203.534  7203.550  0.500  1.823580  151.169  153.042  24.7081
  7208.786  7208.790  0.500  1.816234  151.08  153.164  24.9102
  7214.205  7214.210  0.500  1.810809  151.007  153.34  25.0745
  7219.800  7219.790  0.500  1.807042  150.906  153.432  25.1841
  7225.551  7225.550  0.500  1.804343  150.797  153.513  25.2656
  7231.478  7231.480  0.500  1.802147  150.867  153.846  25.376
  7237.582  7237.580  0.500  1.798473  150.791  153.99  25.4932
  7243.854  7243.850  0.500  1.793882  150.617  154.138  25.6352
  7250.297  7250.290  0.500  1.789718  150.602  154.371  25.7811
  7256.901  7256.900  0.500  1.785807  150.684  154.762  25.9477
  7263.699  7263.690  0.500  1.782045  145.77  150.04  25.2507
  7270.652  7270.650  0.500  1.776522  150.952  155.59  26.3298
  7277.785  7277.770  0.500  1.770908  151.014  155.987  26.5456
  7285.075  7285.070  0.500  1.764971  148.323  153.481  26.2746
  7292.552  7292.550  0.500  1.760203  150.787  156.37  26.8972
  7300.203  7300.190  0.500  1.756160  150.563  156.42  27.0149
  7308.012  7308.000  0.500  1.751807  150.703  156.881  27.2126
  7316.004  7315.990  0.500  1.746921  150.597  157.127  27.3888
  7324.171  7324.150  0.500  1.741356  150.936  157.788  27.6574
  7332.488  7332.470  0.500  1.735820  150.9  158.098  27.8657
  7340.982  7340.970  0.500  1.730417  150.52  158.049  28.0079
  7349.667  7349.650  0.500  1.724982  150.648  158.522  28.2448
  7358.511  7358.490  0.500  1.719352  150.546  158.751  28.4454
  7367.513  7367.500  0.500  1.713167  150.417  158.984  28.6638
  7376.710  7376.690  0.500  1.706953  150.275  159.159  28.8742
  7386.058  7386.050  0.500  1.701243  150.117  159.403  29.0841
  7395.584  7395.570  0.500  1.695657  149.993  159.649  29.2921
  7405.276  7405.270  0.500  1.690072  149.833  159.865  29.4961
  7415.160  7415.150  0.500  1.684035  149.664  160.053  29.7096
  7425.201  7425.190  0.500  1.677466  149.494  160.31  29.9534
  7435.406  7435.400  0.500  1.670864  149.325  160.482  30.1842
  7445.801  7445.790  0.500  1.664742  147.966  159.407  30.1661
  7456.359  7456.350  0.500  1.658376  149.006  160.979  30.6581
  7467.090  7467.080  0.500  1.651925  148.41  160.74  30.8108
  7477.984  7477.980  0.500  1.645112  148.665  161.432  31.1548
  7489.062  7489.050  0.500  1.638469  148.434  161.595  31.3943
  7500.300  7500.290  0.500  1.631938  148.248  161.864  31.6526
  7511.725  7511.710  0.500  1.625276  147.994  162.034  31.8975
  7523.300  7523.290  0.500  1.618530  147.762  162.2  32.1463
  7535.066  7535.050  0.500  1.611675  147.518  162.338  32.395
  7547.014  7546.980  0.500  1.604617  147.26  162.536  32.6643
  7559.095  7559.080  0.500  1.597548  146.99  162.652  32.9194
  7571.371  7571.350  0.500  1.590649  146.738  162.868  33.1915
  7583.811  7583.790  0.500  1.583515  146.436  162.982  33.4524
  7596.441  7596.410  0.500  1.576365  146.011  162.98  33.692
  7609.203  7609.190  0.500  1.569093  145.12  162.393  33.8157
  7622.166  7622.150  0.500  1.561861  145.214  163.006  34.1897
  7635.294  7635.280  0.500  1.554501  145.137  163.372  34.5196
  7648.604  7648.580  0.500  1.547149  144.822  163.544  34.8109
  7662.066  7662.050  0.500  1.539871  144.511  163.656  35.0892
  7675.719  7675.700  0.500  1.532269  144.153  163.716  35.37
  7689.528  7689.510  0.500  1.524972  143.921  163.869  35.6623
  7703.510  7703.500  0.500  1.517284  143.418  163.856  35.9347
  7717.675  7717.660  0.500  1.509841  143.061  163.935  36.2206
  7732.003  7731.990  0.500  1.502185  142.711  164.014  36.5166
  7746.492  7746.490  0.500  1.494454  142.336  164.037  36.8051
  7761.165  7761.160  0.500  1.486927  141.883  164.012  37.0775
  7776.004  7776.000  0.500  1.479417  141.418  163.997  37.3537
  7791.024  7791.020  0.500  1.471709  140.999  164.037  37.652
  7806.205  7806.200  0.500  1.464002  140.535  163.961  37.9255
  7821.568  7821.560  0.500  1.456115  140.041  163.889  38.209
  7837.099  7837.090  0.500  1.448177  139.528  163.779  38.4878
  7852.809  7852.790  0.500  1.440442  138.972  163.669  38.7605
  7868.675  7868.660  0.500  1.432533  138.425  163.486  39.0247
  7884.729  7884.710  0.500  1.424606  137.878  163.367  39.3067
  7900.909  7900.920  0.500  1.416741  136.989  162.837  39.4885
  7917.330  7917.310  0.500  1.408666  136.649  162.933  39.832
  7933.892  7933.870  0.500  1.400751  135.956  162.607  40.0682
  7950.574  7950.600  0.500  1.392773  134.805  161.742  40.1745
  7967.477  7967.500  0.500  1.384713  134.659  162.028  40.5712
  7978.833  7978.860  0.500  1.379468  134.307  161.95  40.7649