File: xdidata/Nd/Nd-L1-Nd2Zr2O7.xdi
# XDI/1.0 BlueSky/1.10.0 BMM/2023-1.0-py310-tiled
# Beamline.name: BMM (06BM) -- Beamline for Materials Measurement (NIST)
# Beamline.xray_source: NSLS-II three-pole wiggler
# Beamline.collimation: paraboloid mirror, 5 nm Rh on 30 nm Pt
# Beamline.focusing: not in use
# Beamline.harmonic_rejection: flat mirror, Si stripe, pitch = 7.0 mrad relative to beam
# Beamline.software: Bluesky 1.10.0, Ophyd 1.7.0, DataBroker 2.0.0b13, Python 3.10.8, 2023-1.0-py310-tiled
# Detector.I0: 10 cm N2
# Detector.I1: 25 cm N2
# Detector.I2: 25 cm N2
# Element.symbol: Nd
# Element.edge: L1
# Element.reference: Nd
# Element.reference_material: Nd2O3
# Facility.name: NSLS-II
# Facility.energy: 3.0
# Facility.current: 400.7
# Facility.mode: top-off
# Facility.GUP: 123456
# Facility.SAF: 301027
# Facility.cycle: 2023-2
# Mono.name: Si(111)
# Mono.d_spacing: 3.13519
# Mono.encoder_resolution: 0.0000050 deg/ct
# Mono.angle_offset: 16.0754 deg
# Mono.scan_mode: pseudo channel cut
# Mono.scan_type: step
# Mono.direction: forward in energy
# Sample.name: Nd2Zr2O7
# Sample.prep: Powder in PEG pellet
# Sample.x: 149.848 mm
# Sample.y: 114.690 mm
# Sample.SDD_position: 205.000 mm
# Scan.experimenters: Bruce Ravel
# Scan.edge_energy: 7126.0
# Scan.start_time: 2023-05-08T20:17:57
# Scan.end_time: 2023-05-08T20:23:47
# Scan.transient_id: 75576
# Scan.uid: 004f7de9-96d1-459a-8691-6101d5db2955
# Scan.plot_hint: ln(I0/It)  --  ln($5/$6)
# Column.1: energy eV
# Column.2: requested_energy eV
# Column.3: measurement_time seconds
# Column.4: xmu
# Column.5: I0 nA
# Column.6: It nA
# Column.7: Ir nA
# ///////////
# sample courtesy Martin Stennett, University of Sheffield
# -----------
# energy  requested_energy  measurement_time  xmu  I0  It  Ir
  6926.012  6926.000  0.500  2.005286  150.492  20.2595  3.927851
  6946.015  6946.000  0.500  1.984687  150.572  20.6922  4.059974
  6966.012  6966.000  0.500  1.965861  150.671  21.0992  4.185448
  6986.012  6986.000  0.500  1.946221  150.67  21.5176  4.327773
  7006.023  7006.000  0.500  1.926743  150.668  21.9405  4.463029
  7026.015  7026.000  0.500  1.908175  150.593  22.3406  4.597469
  7046.014  7046.000  0.500  1.888874  150.497  22.7615  4.739653
  7066.015  7066.000  0.500  1.870605  150.356  23.1595  4.875353
  7085.980  7086.000  0.500  1.852623  150.096  23.5388  5.013847
  7097.984  7098.000  0.500  1.841522  150.006  23.7873  5.102098
  7101.988  7102.000  0.500  1.837974  149.957  23.8642  5.129108
  7105.987  7106.000  0.500  1.834742  149.926  23.9363  5.154995
  7109.988  7110.000  0.500  1.831522  149.841  24  5.178774
  7113.989  7114.000  0.500  1.828508  149.589  24.032  5.195787
  7116.481  7116.500  0.500  1.827003  149.553  24.0623  5.207079
  7117.479  7117.500  0.500  1.826148  149.446  24.0658  5.211284
  7118.487  7118.500  0.500  1.825236  149.404  24.0808  5.216600
  7119.480  7119.500  0.500  1.824827  149.349  24.0819  5.217149
  7120.488  7120.500  0.500  1.824041  149.302  24.0932  5.222107
  7121.485  7121.500  0.500  1.823818  149.25  24.0902  5.222773
  7122.487  7122.500  0.500  1.823124  149.205  24.0996  5.226735
  7123.488  7123.500  0.500  1.822653  149.143  24.101  5.227558
  7124.486  7124.500  0.500  1.822396  149.09  24.0987  5.227508
  7125.491  7125.500  0.500  1.822268  149.033  24.0924  5.226477
  7126.497  7126.500  0.500  1.822223  148.961  24.0819  5.223954
  7127.494  7127.500  0.500  1.823257  148.889  24.0455  5.214203
  7128.487  7128.500  0.500  1.824406  148.827  24.0077  5.202540
  7129.496  7129.500  0.500  1.826093  148.734  23.9524  5.183626
  7130.500  7130.500  0.500  1.829081  148.646  23.8668  5.154684
  7131.494  7131.500  0.500  1.832146  148.561  23.7802  5.125931
  7132.495  7132.500  0.500  1.835249  148.522  23.7002  5.100798
  7133.498  7133.500  0.500  1.838128  148.51  23.6301  5.079923
  7134.495  7134.500  0.500  1.840857  148.517  23.5669  5.057328
  7135.497  7135.500  0.500  1.844250  148.512  23.4862  5.026098
  7136.503  7136.500  0.500  1.847881  148.42  23.3866  4.987637
  7137.499  7137.500  0.500  1.852040  148.521  23.3054  4.947831
  7138.497  7138.500  0.500  1.857094  148.473  23.1804  4.891435
  7139.502  7139.500  0.500  1.862840  148.467  23.0467  4.827830
  7140.510  7140.500  0.500  1.869316  148.455  22.896  4.757823
  7141.503  7141.500  0.500  1.874753  148.451  22.7713  4.694231
  7142.500  7142.500  0.500  1.879510  148.441  22.6618  4.638966
  7143.506  7143.500  0.500  1.882903  148.458  22.5875  4.601400
  7144.506  7144.500  0.500  1.884056  148.462  22.5622  4.586436
  7145.498  7145.500  0.500  1.883065  148.438  22.5808  4.594471
  7146.496  7146.500  0.500  1.880976  148.413  22.6243  4.614903
  7147.499  7147.500  0.500  1.878177  148.41  22.6872  4.645816
  7148.504  7148.500  0.500  1.875393  148.402  22.7492  4.678501
  7149.499  7149.500  0.500  1.872179  148.411  22.8239  4.713022
  7150.497  7150.500  0.500  1.868831  148.375  22.8948  4.745284
  7151.996  7151.990  0.500  1.864158  148.358  22.9995  4.787815
  7154.023  7154.010  0.500  1.860762  148.334  23.074  4.820745
  7156.129  7156.120  0.500  1.858945  148.339  23.1168  4.843106
  7158.313  7158.300  0.500  1.856920  148.334  23.1627  4.870206
  7160.569  7160.560  0.500  1.851976  148.283  23.2695  4.913811
  7162.906  7162.890  0.500  1.845890  148.237  23.4044  4.963919
  7165.307  7165.300  0.500  1.839616  148.126  23.5341  5.008453
  7167.787  7167.780  0.500  1.834785  148.063  23.638  5.041714
  7170.353  7170.340  0.500  1.831640  148.03  23.7071  5.063422
  7172.985  7172.980  0.500  1.830710  147.964  23.7186  5.064113
  7175.703  7175.700  0.500  1.831678  147.925  23.6894  5.050437
  7178.500  7178.490  0.500  1.833062  147.883  23.6499  5.033450
  7181.359  7181.350  0.500  1.834017  147.854  23.6226  5.024407
  7184.303  7184.290  0.500  1.831893  147.798  23.6639  5.032503
  7187.312  7187.310  0.500  1.828014  147.761  23.7499  5.055724
  7190.417  7190.410  0.500  1.824299  147.704  23.8292  5.078891
  7193.593  7193.580  0.500  1.821961  147.403  23.8363  5.087662
  7196.842  7196.830  0.500  1.819040  147.482  23.9189  5.117354
  7200.164  7200.150  0.500  1.815465  147.408  23.9924  5.147862
  7203.561  7203.550  0.500  1.811669  147.338  24.0723  5.186493
  7207.042  7207.030  0.500  1.808114  147.264  24.1459  5.226283
  7210.600  7210.580  0.500  1.804580  147.151  24.2127  5.260351
  7214.218  7214.210  0.500  1.801149  147.093  24.2863  5.292010
  7217.918  7217.910  0.500  1.797434  146.979  24.358  5.318102
  7221.702  7221.690  0.500  1.793840  147.456  24.525  5.363536
  7225.560  7225.550  0.500  1.789983  147.326  24.598  5.386404
  7229.501  7229.480  0.500  1.786285  147.486  24.7159  5.416845
  7233.508  7233.490  0.500  1.782935  147.364  24.7783  5.437784
  7237.600  7237.580  0.500  1.778911  147.279  24.8639  5.467710
  7241.754  7241.740  0.500  1.775335  147.217  24.9424  5.499676
  7245.992  7245.980  0.500  1.772218  146.503  24.8989  5.502613
  7250.301  7250.290  0.500  1.768518  146.986  25.0737  5.553059
  7254.692  7254.680  0.500  1.764895  144.614  24.7586  5.493920
  7259.167  7259.150  0.500  1.761306  146.853  25.2323  5.613941
  7263.706  7263.690  0.500  1.757535  139.348  24.0332  5.361882
  7268.320  7268.310  0.500  1.753923  147.24  25.4862  5.697549
  7273.017  7273.000  0.500  1.749645  146.992  25.5525  5.731503
  7277.783  7277.770  0.500  1.745153  147.212  25.7059  5.783306
  7282.632  7282.620  0.500  1.740693  147.114  25.8035  5.824938
  7287.565  7287.550  0.500  1.736284  146.872  25.875  5.857581
  7292.561  7292.550  0.500  1.732265  146.86  25.9771  5.895978
  7297.639  7297.620  0.500  1.728037  146.744  26.0665  5.929368
  7302.783  7302.770  0.500  1.723949  146.868  26.1954  5.971424
  7308.016  7308.000  0.500  1.719826  146.678  26.2697  6.002473
  7313.321  7313.310  0.500  1.715191  146.643  26.3853  6.043084
  7318.706  7318.690  0.500  1.710299  146.541  26.4963  6.086866
  7324.160  7324.150  0.500  1.705347  146.431  26.6078  6.133398
  7329.690  7329.680  0.500  1.700839  146.341  26.7116  6.174740
  7335.306  7335.290  0.500  1.696045  146.197  26.8136  6.217119
  7340.987  7340.970  0.500  1.691050  145.952  26.9027  6.256186
  7346.745  7346.740  0.500  1.686448  145.964  27.029  6.304136
  7352.584  7352.570  0.500  1.682170  145.832  27.1204  6.345611
  7358.497  7358.490  0.500  1.677483  145.756  27.2335  6.391856
  7364.489  7364.480  0.500  1.672629  145.593  27.3356  6.437291
  7370.561  7370.550  0.500  1.667321  145.49  27.4616  6.490004
  7376.696  7376.690  0.500  1.662451  145.35  27.5691  6.537477
  7382.916  7382.910  0.500  1.657038  145.234  27.6965  6.587842
  7389.210  7389.200  0.500  1.651952  145.114  27.8148  6.634496
  7395.582  7395.570  0.500  1.646448  145.004  27.947  6.686189
  7402.038  7402.020  0.500  1.641735  144.829  28.0453  6.730440
  7408.559  7408.550  0.500  1.636346  144.704  28.1724  6.781435
  7415.160  7415.150  0.500  1.630663  144.549  28.3027  6.837043
  7421.832  7421.820  0.500  1.625350  144.408  28.4257  6.891966
  7428.578  7428.570  0.500  1.619750  144.219  28.5479  6.946003
  7435.418  7435.400  0.500  1.614344  144.049  28.6688  6.999693
  7442.331  7442.310  0.500  1.608881  143.776  28.7712  7.049005
  7449.304  7449.290  0.500  1.603572  143.711  28.9113  7.107957
  7456.364  7456.350  0.500  1.598125  143.551  29.0367  7.161910
  7463.511  7463.480  0.500  1.592638  143.344  29.1545  7.217220
  7470.706  7470.690  0.500  1.586675  143.298  29.3194  7.281909
  7477.998  7477.980  0.500  1.581043  143.046  29.4332  7.338331
  7485.358  7485.340  0.500  1.575050  142.817  29.5626  7.397704
  7492.802  7492.780  0.500  1.569357  142.633  29.6933  7.455552
  7500.303  7500.290  0.500  1.563489  142.432  29.826  7.516157
  7507.893  7507.880  0.500  1.557748  142.212  29.9513  7.574805
  7515.567  7515.550  0.500  1.551665  141.935  30.0752  7.632900
  7523.314  7523.290  0.500  1.545775  141.722  30.2075  7.695654
  7531.129  7531.110  0.500  1.540469  141.465  30.3132  7.752124
  7539.031  7539.010  0.500  1.534453  141.203  30.4397  7.811908
  7546.965  7546.980  0.500  1.527962  140.953  30.5836  7.881158
  7555.026  7555.030  0.500  1.521736  140.694  30.7182  7.945788
  7563.172  7563.150  0.500  1.515562  140.434  30.8511  8.011515
  7571.384  7571.350  0.500  1.509396  140.144  30.9779  8.073485
  7579.650  7579.630  0.500  1.503341  139.812  31.0922  8.134972
  7587.957  7587.980  0.500  1.497132  139.488  31.2134  8.199354
  7596.392  7596.410  0.500  1.491318  139.126  31.3139  8.257839
  7604.934  7604.910  0.500  1.485311  138.293  31.3139  8.290058
  7613.494  7613.490  0.500  1.478440  137.945  31.4505  8.359663
  7622.169  7622.150  0.500  1.472044  137.99  31.6625  8.449984
  7630.908  7630.890  0.500  1.465607  137.839  31.8322  8.528884
  7639.713  7639.700  0.500  1.459590  137.544  31.9559  8.597185
  7648.596  7648.580  0.500  1.452943  137.216  32.0922  8.666844
  7657.558  7657.540  0.500  1.446667  136.84  32.2059  8.733433
  7666.593  7666.580  0.500  1.440206  136.512  32.3367  8.802853
  7671.142  7671.130  0.500  1.437131  136.347  32.3972  8.838390