File: xdidata/Tb/Tb-L3-TerbiumOxide.xdi
# XDI/1.0 BlueSky/1.10.0 BMM/2023-1.0-py310-tiled
# Beamline.name: BMM (06BM) -- Beamline for Materials Measurement (NIST)
# Beamline.xray_source: NSLS-II three-pole wiggler
# Beamline.collimation: paraboloid mirror, 5 nm Rh on 30 nm Pt
# Beamline.focusing: not in use
# Beamline.harmonic_rejection: flat mirror, Si stripe, pitch = 7.0 mrad relative to beam
# Beamline.software: Bluesky 1.10.0, Ophyd 1.7.0, DataBroker 2.0.0b13, Python 3.10.8, 2023-1.0-py310-tiled
# Detector.I0: 10 cm N2
# Detector.I1: 25 cm N2
# Detector.I2: 25 cm N2
# Element.symbol: Tb
# Element.edge: L3
# Element.reference: Tb
# Element.reference_material: Tb4O9
# Facility.name: NSLS-II
# Facility.energy: 3.0
# Facility.current: 400.4
# Facility.mode: top-off
# Facility.GUP: 301027
# Facility.SAF: 310583
# Facility.cycle: 2023-2
# Mono.name: Si(111)
# Mono.d_spacing: 3.13519
# Mono.encoder_resolution: 0.0000050 deg/ct
# Mono.angle_offset: 16.0754 deg
# Mono.scan_mode: pseudo channel cut
# Mono.scan_type: step
# Mono.direction: forward in energy
# Sample.name: Tb4O9
# Sample.prep: PEG pellet
# Sample.x: 109.138 mm
# Sample.y: 153.150 mm
# Sample.SDD_position: 205.000 mm
# Scan.experimenters: Bruce Ravel
# Scan.edge_energy: 7514.0
# Scan.start_time: 2023-05-28T13:49:24
# Scan.end_time: 2023-05-28T13:57:08
# Scan.transient_id: 78735
# Scan.uid: 17cf7e95-925d-435c-b6f2-0b17221e4a5c
# Scan.plot_hint: ln(It/Ir)  --  ln($6/$7)
# Column.1: energy eV
# Column.2: requested_energy eV
# Column.3: measurement_time seconds
# Column.4: xmu
# Column.5: I0 nA
# Column.6: It nA
# Column.7: Ir nA
# ///////////
# sample courtesy Martin Stennett, University of Sheffield
# -----------
# energy  requested_energy  measurement_time  xmu  I0  It  Ir
  7314.014  7314.000  0.500  1.686189  147.365  153.635  28.457
  7344.043  7344.000  0.500  1.665816  147.029  154.501  29.2064
  7374.025  7374.000  0.500  1.646019  146.854  155.458  29.9749
  7404.012  7404.000  0.500  1.626548  146.612  156.416  30.7525
  7434.442  7434.000  0.500  1.607433  146.294  157.216  31.5064
  7463.980  7464.000  0.500  1.589921  146.274  158.355  32.2952
  7485.981  7486.000  0.500  1.580607  146.029  158.87  32.7035
  7491.983  7492.000  0.500  1.580205  145.948  159.051  32.7537
  7497.983  7498.000  0.500  1.582372  145.899  159.221  32.7178
  7503.986  7504.000  0.500  1.591811  145.817  159.367  32.4402
  7504.877  7504.900  0.500  1.594679  145.783  159.368  32.3476
  7505.777  7505.800  0.500  1.598144  145.788  159.396  32.2414
  7506.688  7506.700  0.500  1.602534  145.732  159.37  32.0948
  7507.593  7507.600  0.500  1.608359  145.691  159.356  31.9055
  7508.493  7508.500  0.500  1.615948  145.683  159.325  31.6582
  7509.388  7509.400  0.500  1.626474  145.665  159.391  31.3397
  7510.289  7510.300  0.500  1.640439  145.635  159.399  30.9066
  7511.197  7511.200  0.500  1.658053  145.625  159.389  30.3652
  7512.098  7512.100  0.500  1.679320  145.628  159.441  29.7359
  7512.999  7513.000  0.500  1.703168  145.598  159.422  29.0317
  7513.895  7513.900  0.500  1.732848  145.583  159.456  28.1886
  7514.797  7514.800  0.500  1.777258  145.57  159.477  26.9677
  7515.699  7515.700  0.500  1.847259  145.539  159.477  25.1445
  7516.598  7516.600  0.500  1.953628  145.526  159.528  22.6144
  7517.496  7517.500  0.500  2.081260  145.506  159.528  19.9048
  7518.398  7518.400  0.500  2.214039  145.476  159.553  17.4326
  7519.301  7519.300  0.500  2.339782  145.49  159.571  15.3745
  7520.202  7520.200  0.500  2.427179  145.438  159.527  14.084
  7521.100  7521.100  0.500  2.459169  145.407  159.562  13.6435
  7521.991  7522.000  0.500  2.444304  145.391  159.575  13.8489
  7522.907  7522.900  0.500  2.411656  145.365  159.569  14.308
  7523.799  7523.800  0.500  2.383148  145.784  160.071  14.7681
  7524.695  7524.700  0.500  2.366009  145.788  160.088  15.025
  7525.602  7525.600  0.500  2.363341  145.806  160.14  15.07
  7526.504  7526.500  0.500  2.381581  145.797  160.188  14.802
  7527.402  7527.400  0.500  2.415742  145.785  160.176  14.3039
  7528.304  7528.300  0.500  2.444937  145.774  160.23  13.897
  7529.197  7529.200  0.500  2.451749  145.719  160.199  13.8
  7530.100  7530.100  0.500  2.436621  145.71  160.222  14.0124
  7531.006  7531.000  0.500  2.396592  145.688  160.171  14.58
  7531.895  7531.900  0.500  2.331864  145.708  160.291  15.5666
  7532.803  7532.800  0.500  2.253047  145.639  160.249  16.8387
  7533.702  7533.700  0.500  2.181026  145.587  160.24  18.0952
  7534.609  7534.600  0.500  2.127759  145.556  160.223  19.0832
  7535.501  7535.500  0.500  2.089734  145.528  160.182  19.8178
  7536.399  7536.400  0.500  2.063023  145.516  160.234  20.3608
  7537.296  7537.300  0.500  2.044791  145.486  160.201  20.7312
  7538.206  7538.200  0.500  2.031359  145.46  160.22  21.0139
  7539.000  7539.000  0.500  2.022075  145.44  160.209  21.2085
  7542.029  7542.010  0.500  1.997363  145.413  160.341  21.7572
  7545.226  7545.200  0.500  1.998411  145.36  160.384  21.7401
  7548.542  7548.560  0.500  2.011727  145.28  160.416  21.4568
  7552.068  7552.080  0.500  2.030379  145.192  160.399  21.0582
  7555.779  7555.780  0.500  2.055879  145.162  160.526  20.5442
  7559.648  7559.650  0.500  2.066845  145.13  160.66  20.3371
  7563.703  7563.700  0.500  2.063438  145.036  160.731  20.4155
  7567.905  7567.910  0.500  2.063216  144.987  160.766  20.4245
  7572.285  7572.290  0.500  2.053780  144.925  160.9  20.6353
  7576.846  7576.850  0.500  2.037095  144.842  160.977  20.9926
  7581.584  7581.580  0.500  2.022279  144.796  161.118  21.3245
  7586.478  7586.480  0.500  2.014143  144.686  161.161  21.5045
  7591.551  7591.550  0.500  2.009254  144.522  161.16  21.6097
  7596.797  7596.790  0.500  2.007328  144.368  161.162  21.6516
  7602.212  7602.210  0.500  2.008268  142.163  158.87  21.3237
  7607.799  7607.790  0.500  2.010000  143.659  160.759  21.5399
  7613.559  7613.550  0.500  2.012277  143.548  160.854  21.5037
  7619.488  7619.480  0.500  2.014639  143.638  161.168  21.4948
  7625.602  7625.580  0.500  2.016985  143.906  161.655  21.5092
  7631.859  7631.850  0.500  2.012538  143.895  161.891  21.6366
  7638.297  7638.290  0.500  2.002868  143.785  161.99  21.8602
  7644.907  7644.900  0.500  1.990544  143.704  162.158  22.1542
  7651.698  7651.690  0.500  1.980692  143.605  162.279  22.3903
  7658.664  7658.650  0.500  1.976754  143.49  162.384  22.4931
  7665.778  7665.770  0.500  1.976963  143.414  162.574  22.5147
  7673.095  7673.070  0.500  1.976711  143.236  162.542  22.516
  7680.559  7680.550  0.500  1.971404  143.123  162.689  22.6562
  7688.197  7688.190  0.500  1.964285  139.457  158.781  22.27
  7696.013  7696.000  0.500  1.960188  142.871  162.977  22.9524
  7704.009  7703.990  0.500  1.958542  142.598  162.918  22.9819
  7712.165  7712.150  0.500  1.956986  142.63  163.216  23.0598
  7720.486  7720.470  0.500  1.951753  141.635  162.361  23.0593
  7728.989  7728.970  0.500  1.943809  142.334  163.494  23.4054
  7737.670  7737.650  0.500  1.935425  142.587  164.036  23.6807
  7746.515  7746.490  0.500  1.928991  142.512  164.312  23.8736
  7755.519  7755.500  0.500  1.924738  142.335  164.394  23.9874
  7764.706  7764.690  0.500  1.920503  142.178  164.514  24.1068
  7774.069  7774.050  0.500  1.915100  141.9  164.534  24.2404
  7783.584  7783.570  0.500  1.908453  141.7  164.551  24.4045
  7793.284  7793.270  0.500  1.902174  141.47  164.669  24.5759
  7803.163  7803.150  0.500  1.896731  141.26  164.774  24.7257
  7813.213  7813.190  0.500  1.891975  140.991  164.704  24.833
  7823.413  7823.400  0.500  1.886532  140.812  164.846  24.9901
  7833.811  7833.790  0.500  1.878933  140.517  164.826  25.1777
  7844.366  7844.350  0.500  1.871212  140.27  164.914  25.3863
  7855.093  7855.080  0.500  1.864302  138.963  163.691  25.3728
  7865.986  7865.980  0.500  1.857837  139.753  164.974  25.7375
  7877.068  7877.050  0.500  1.851738  139.44  164.984  25.8966
  7888.297  7888.290  0.500  1.845027  139.149  164.996  26.0728
  7899.725  7899.710  0.500  1.837935  137.852  163.779  26.0647
  7911.302  7911.290  0.500  1.830797  138.515  164.977  26.4434
  7923.067  7923.050  0.500  1.823677  138.206  165.008  26.6375
  7934.990  7934.980  0.500  1.816863  137.781  164.827  26.7902
  7947.095  7947.080  0.500  1.809672  137.573  164.909  26.9969
  7959.360  7959.350  0.500  1.802266  137.159  164.846  27.1872
  7971.803  7971.790  0.500  1.794658  136.7  164.681  27.3673
  7984.420  7984.410  0.500  1.786948  135.984  164.2  27.4987
  7997.209  7997.190  0.500  1.779040  135.622  164.137  27.7064
  8010.162  8010.150  0.500  1.771125  135.443  164.287  27.9521
  8023.293  8023.280  0.500  1.763311  135.209  164.41  28.1923
  8036.593  8036.580  0.500  1.755516  134.84  164.324  28.3981
  8050.074  8050.050  0.500  1.748067  134.394  164.174  28.5843
  8063.708  8063.700  0.500  1.740116  133.959  164.051  28.7909
  8077.526  8077.510  0.500  1.731712  133.321  163.671  28.9666
  8091.522  8091.500  0.500  1.723311  128.063  157.605  28.1284
  8105.681  8105.660  0.500  1.715026  132.768  163.776  29.473
  8120.048  8119.990  0.500  1.706686  132.26  163.563  29.6811
  8134.548  8134.490  0.500  1.698490  131.786  163.355  29.8874
  8149.142  8149.160  0.500  1.689889  131.228  163.112  30.1007
  8163.989  8164.000  0.500  1.681001  130.708  162.857  30.322
  8178.992  8179.020  0.500  1.671901  130.212  162.644  30.5591
  8194.164  8194.200  0.500  1.663102  129.674  162.352  30.7739
  8209.539  8209.560  0.500  1.654538  129.117  162.071  30.9848
  8225.078  8225.090  0.500  1.646523  128.553  161.769  31.1759
  8230.281  8230.310  0.500  1.644293  128.329  161.597  31.2122