File: xdidata/Tb/Tb-L1-Tb2TiO5.xdi
# XDI/1.0 BlueSky/1.10.0 BMM/2023-1.0-py310-tiled
# Beamline.name: BMM (06BM) -- Beamline for Materials Measurement (NIST)
# Beamline.xray_source: NSLS-II three-pole wiggler
# Beamline.collimation: paraboloid mirror, 5 nm Rh on 30 nm Pt
# Beamline.focusing: not in use
# Beamline.harmonic_rejection: flat mirror, Pt stripe, pitch = 7.0 mrad relative to beam
# Beamline.software: Bluesky 1.10.0, Ophyd 1.7.0, DataBroker 2.0.0b13, Python 3.10.8, 2023-1.0-py310-tiled
# Detector.I0: 10 cm N2
# Detector.I1: 25 cm N2
# Detector.I2: 25 cm N2
# Element.symbol: Tb
# Element.edge: L1
# Element.reference: Tb
# Element.reference_material: Tb4O9
# Facility.name: NSLS-II
# Facility.energy: 3.0
# Facility.current: 399.8
# Facility.mode: top-off
# Facility.GUP: 123456
# Facility.SAF: 301027
# Facility.cycle: 2023-2
# Mono.name: Si(111)
# Mono.d_spacing: 3.13519
# Mono.encoder_resolution: 0.0000050 deg/ct
# Mono.angle_offset: 16.0754 deg
# Mono.scan_mode: pseudo channel cut
# Mono.scan_type: step
# Mono.direction: forward in energy
# Sample.name: Tb2TiO5
# Sample.prep: Powder in PEG pellet
# Sample.x: 149.848 mm
# Sample.y: 114.690 mm
# Sample.SDD_position: 205.000 mm
# Scan.experimenters: Bruce Ravel
# Scan.edge_energy: 8708.0
# Scan.start_time: 2023-05-08T21:59:42
# Scan.end_time: 2023-05-08T22:05:28
# Scan.transient_id: 75654
# Scan.uid: a39cba29-b299-4d78-a8a5-86106ce93a7a
# Scan.plot_hint: ln(I0/It)  --  ln($5/$6)
# Column.1: energy eV
# Column.2: requested_energy eV
# Column.3: measurement_time seconds
# Column.4: xmu
# Column.5: I0 nA
# Column.6: It nA
# Column.7: Ir nA
# ///////////
# sample courtesy Martin Stennett, University of Sheffield
# -----------
# energy  requested_energy  measurement_time  xmu  I0  It  Ir
  8508.032  8508.000  0.500  0.979068  128.539  48.2872  10.6115
  8528.081  8528.000  0.500  0.969175  127.336  48.3108  10.7117
  8548.040  8548.000  0.500  0.960728  127.697  48.8588  10.9138
  8568.051  8568.000  0.500  0.950202  127.263  49.208  11.0781
  8588.026  8588.000  0.500  0.941566  126.481  49.3295  11.203
  8607.989  8608.000  0.500  0.934019  125.841  49.4517  11.3184
  8627.999  8628.000  0.500  0.924592  126.68  50.2533  11.5899
  8647.995  8648.000  0.500  0.915064  125.878  50.4129  11.7173
  8668.004  8668.000  0.500  0.907378  125.532  50.6624  11.8612
  8679.986  8680.000  0.500  0.902691  125.237  50.7807  11.9341
  8683.980  8684.000  0.500  0.901270  125.133  50.8109  11.9561
  8687.977  8688.000  0.500  0.899684  125.028  50.8486  11.9794
  8691.982  8692.000  0.500  0.898164  124.924  50.8835  11.9995
  8695.978  8696.000  0.500  0.897020  124.788  50.8865  12.0094
  8698.478  8698.500  0.500  0.896558  124.693  50.8713  12.0125
  8699.473  8699.500  0.500  0.896212  124.646  50.8694  12.0114
  8700.478  8700.500  0.500  0.896148  124.573  50.8429  12.0056
  8701.480  8701.500  0.500  0.896210  124.506  50.8127  11.9986
  8702.476  8702.500  0.500  0.896284  124.419  50.7731  11.9863
  8703.479  8703.500  0.500  0.896457  124.277  50.7065  11.9697
  8704.479  8704.500  0.500  0.896737  124.041  50.5962  11.9379
  8705.485  8705.500  0.500  0.897011  123.485  50.3554  11.8756
  8706.488  8706.500  0.500  0.897694  121.177  49.3808  11.6422
  8707.489  8707.500  0.500  0.898735  110.927  45.1566  10.644
  8708.489  8708.500  0.500  0.900895  110.824  45.0173  10.587
  8709.490  8709.500  0.500  0.903657  121.165  49.0821  11.5187
  8710.481  8710.500  0.500  0.907191  124.11  50.0978  11.7349
  8711.499  8711.500  0.500  0.910563  124.578  50.1176  11.7064
  8712.494  8712.500  0.500  0.913508  124.709  50.0226  11.6464
  8713.492  8713.500  0.500  0.916407  124.769  49.9016  11.5806
  8714.491  8714.500  0.500  0.919244  124.769  49.7603  11.5124
  8715.497  8715.500  0.500  0.922494  124.759  49.5951  11.4383
  8716.496  8716.500  0.500  0.926458  124.749  49.395  11.3528
  8717.495  8717.500  0.500  0.930924  124.728  49.1666  11.2546
  8718.488  8718.500  0.500  0.936442  124.704  48.8864  11.1388
  8719.485  8719.500  0.500  0.942803  124.677  48.5662  10.9932
  8720.505  8720.500  0.500  0.949853  124.657  48.2172  10.8343
  8721.502  8721.500  0.500  0.956098  124.626  47.9052  10.684
  8722.496  8722.500  0.500  0.961368  124.606  47.6455  10.5495
  8723.497  8723.500  0.500  0.964527  124.575  47.4833  10.4524
  8724.498  8724.500  0.500  0.965743  124.547  47.4151  10.3942
  8725.509  8725.500  0.500  0.965540  124.518  47.4136  10.3663
  8726.504  8726.500  0.500  0.964763  124.487  47.4386  10.3523
  8727.490  8727.500  0.500  0.964084  124.451  47.4573  10.3396
  8728.492  8728.500  0.500  0.963351  124.431  47.4844  10.3253
  8729.500  8729.500  0.500  0.962948  124.412  47.4963  10.3022
  8730.500  8730.500  0.500  0.962668  124.379  47.4969  10.2713
  8731.502  8731.500  0.500  0.962149  124.351  47.5108  10.2402
  8732.492  8732.500  0.500  0.961210  124.322  47.5445  10.2105
  8733.997  8733.990  0.500  0.959169  124.287  47.6283  10.1861
  8736.024  8736.010  0.500  0.955264  124.226  47.7911  10.2124
  8738.125  8738.120  0.500  0.949716  124.178  48.0383  10.2905
  8740.311  8740.300  0.500  0.943115  124.124  48.3355  10.3823
  8742.558  8742.560  0.500  0.937463  124.062  48.5853  10.4687
  8744.905  8744.890  0.500  0.933539  124.005  48.7536  10.5554
  8747.302  8747.300  0.500  0.930846  123.943  48.8609  10.6349
  8749.790  8749.780  0.500  0.929720  123.887  48.8937  10.6963
  8752.338  8752.340  0.500  0.929692  123.824  48.8702  10.7469
  8754.984  8754.980  0.500  0.930269  123.765  48.8188  10.7798
  8757.713  8757.700  0.500  0.931014  123.692  48.7538  10.7871
  8760.497  8760.490  0.500  0.931261  123.629  48.7168  10.7873
  8763.356  8763.350  0.500  0.931493  123.546  48.6729  10.7839
  8766.289  8766.290  0.500  0.931696  123.471  48.6334  10.7769
  8769.320  8769.310  0.500  0.932584  123.4  48.5624  10.7589
  8772.423  8772.410  0.500  0.933337  123.326  48.4968  10.7423
  8775.581  8775.580  0.500  0.933089  123.249  48.4785  10.7385
  8778.847  8778.830  0.500  0.931555  123.158  48.5168  10.7463
  8782.152  8782.150  0.500  0.929079  123.069  48.6022  10.7636
  8785.550  8785.550  0.500  0.926165  122.968  48.7038  10.7862
  8789.036  8789.030  0.500  0.923573  122.877  48.7941  10.8111
  8792.589  8792.580  0.500  0.920717  122.778  48.8944  10.8401
  8796.227  8796.210  0.500  0.917807  122.677  48.9963  10.8744
  8799.929  8799.910  0.500  0.915250  122.599  49.0908  10.9175
  8803.707  8803.690  0.500  0.913614  122.512  49.136  10.9555
  8807.559  8807.550  0.500  0.912161  122.416  49.169  10.9907
  8811.491  8811.480  0.500  0.910737  122.313  49.1976  11.0241
  8815.493  8815.490  0.500  0.908964  122.217  49.2463  11.0659
  8819.593  8819.580  0.500  0.906566  122.118  49.3246  11.1153
  8823.757  8823.740  0.500  0.904788  122.029  49.3763  11.1562
  8827.995  8827.980  0.500  0.903711  121.915  49.3835  11.1827
  8832.305  8832.290  0.500  0.902541  121.814  49.4002  11.2064
  8836.703  8836.680  0.500  0.901625  121.715  49.4055  11.22
  8841.172  8841.150  0.500  0.900594  121.604  49.4111  11.2313
  8845.711  8845.690  0.500  0.899090  121.49  49.4391  11.2467
  8850.328  8850.310  0.500  0.896786  121.389  49.5119  11.2749
  8855.017  8855.000  0.500  0.894226  121.273  49.5915  11.3138
  8859.786  8859.770  0.500  0.891310  121.152  49.6866  11.3603
  8864.632  8864.620  0.500  0.888530  121.026  49.7733  11.4052
  8869.557  8869.550  0.500  0.886300  120.904  49.8341  11.4458
  8874.559  8874.550  0.500  0.884088  120.787  49.8959  11.483
  8879.641  8879.620  0.500  0.881803  120.653  49.9546  11.517
  8884.791  8884.770  0.500  0.879632  120.532  50.0129  11.5475
  8890.021  8890.000  0.500  0.877401  120.404  50.0715  11.5824
  8895.340  8895.310  0.500  0.875065  120.275  50.1346  11.6207
  8900.716  8900.690  0.500  0.873004  120.136  50.18  11.6593
  8906.170  8906.150  0.500  0.870815  119.972  50.2215  11.7007
  8911.703  8911.680  0.500  0.868528  119.501  50.139  11.7119
  8917.305  8917.290  0.500  0.866485  118.149  49.6729  11.6349
  8922.986  8922.970  0.500  0.864571  118.493  49.9129  11.7156
  8928.774  8928.740  0.500  0.862433  119.435  50.4176  11.8568
  8934.580  8934.570  0.500  0.859880  119.418  50.5391  11.9056
  8940.497  8940.490  0.500  0.857380  119.263  50.6  11.9433
  8946.501  8946.480  0.500  0.854568  119.107  50.6759  11.9854
  8952.569  8952.550  0.500  0.851510  118.666  50.643  12.004
  8958.700  8958.690  0.500  0.848565  118.793  50.8467  12.0825
  8964.934  8964.910  0.500  0.846369  118.427  50.8017  12.1021
  8971.228  8971.200  0.500  0.843983  118.469  50.9409  12.1672
  8977.594  8977.570  0.500  0.841613  118.289  50.9841  12.2053
  8984.045  8984.020  0.500  0.839215  118.073  51.0135  12.2408
  8990.569  8990.550  0.500  0.836377  117.856  51.0641  12.2823
  8997.175  8997.150  0.500  0.833344  117.757  51.1765  12.3393
  9003.837  9003.820  0.500  0.830425  116.016  50.567  12.2218
  9010.586  9010.570  0.500  0.827407  115.775  50.6147  12.2707
  9017.423  9017.400  0.500  0.824875  117.475  51.4879  12.5182
  9024.340  9024.310  0.500  0.822106  117.393  51.5946  12.5774
  9031.310  9031.290  0.500  0.819613  117.206  51.6411  12.623
  9038.365  9038.350  0.500  0.817046  117.015  51.6897  12.6667
  9045.491  9045.480  0.500  0.814262  116.797  51.7371  12.7092
  9052.714  9052.690  0.500  0.811454  116.637  51.8116  12.7609
  9060.001  9059.980  0.500  0.808345  116.456  51.892  12.8124
  9067.361  9067.340  0.500  0.805081  116.224  51.958  12.8655
  9074.808  9074.780  0.500  0.801899  116.056  52.0484  12.9233
  9082.323  9082.290  0.500  0.798814  115.239  51.8418  12.9085
  9089.895  9089.880  0.500  0.795782  115.636  52.1781  13.0276
  9097.565  9097.550  0.500  0.792953  115.435  52.2353  13.0797
  9105.315  9105.290  0.500  0.790064  115.091  52.2302  13.1121
  9113.126  9113.110  0.500  0.787199  115.026  52.3506  13.1799
  9121.016  9121.010  0.500  0.784184  114.823  52.4158  13.2348
  9129.002  9128.980  0.500  0.780984  114.586  52.4752  13.2885
  9137.052  9137.030  0.500  0.777698  114.344  52.5369  13.3427
  9145.164  9145.150  0.500  0.774479  112.318  51.7722  13.1854
  9153.360  9153.350  0.500  0.771213  113.938  52.6908  13.4601
  9161.650  9161.630  0.500  0.768111  113.818  52.7988  13.527
  9169.998  9169.980  0.500  0.764920  113.592  52.8625  13.5851
  9178.421  9178.410  0.500  0.761732  113.295  52.8926  13.6329
  9186.929  9186.910  0.500  0.758674  113.274  53.0446  13.713
  9195.511  9195.490  0.500  0.755427  112.953  53.0664  13.7605
  9204.171  9204.150  0.500  0.752020  112.656  53.1075  13.8137
  9212.907  9212.890  0.500  0.748620  112.404  53.1694  13.8702
  9221.707  9221.700  0.500  0.745369  112.17  53.2311  13.9301
  9230.606  9230.580  0.500  0.741875  111.933  53.305  13.9911
  9239.563  9239.540  0.500  0.738564  111.686  53.3637  14.0493
  9248.596  9248.580  0.500  0.735371  111.46  53.4256  14.1098
  9253.156  9253.130  0.500  0.733664  111.336  53.4575  14.1421