File: xdidata/Tb/Tb-L1-TerbiumOxide.xdi
# XDI/1.0 BlueSky/1.10.0 BMM/2023-1.0-py310-tiled
# Beamline.name: BMM (06BM) -- Beamline for Materials Measurement (NIST)
# Beamline.xray_source: NSLS-II three-pole wiggler
# Beamline.collimation: paraboloid mirror, 5 nm Rh on 30 nm Pt
# Beamline.focusing: not in use
# Beamline.harmonic_rejection: flat mirror, Pt stripe, pitch = 7.0 mrad relative to beam
# Beamline.software: Bluesky 1.10.0, Ophyd 1.7.0, DataBroker 2.0.0b13, Python 3.10.8, 2023-1.0-py310-tiled
# Detector.I0: 10 cm N2
# Detector.I1: 25 cm N2
# Detector.I2: 25 cm N2
# Element.symbol: Tb
# Element.edge: L1
# Element.reference: Tb
# Element.reference_material: Tb4O9
# Facility.name: NSLS-II
# Facility.energy: 3.0
# Facility.current: 400.6
# Facility.mode: top-off
# Facility.GUP: 301027
# Facility.SAF: 310583
# Facility.cycle: 2023-2
# Mono.name: Si(111)
# Mono.d_spacing: 3.13519
# Mono.encoder_resolution: 0.0000050 deg/ct
# Mono.angle_offset: 16.0754 deg
# Mono.scan_mode: pseudo channel cut
# Mono.scan_type: step
# Mono.direction: forward in energy
# Sample.name: Tb4O9
# Sample.prep: PEG pellet
# Sample.x: 109.138 mm
# Sample.y: 153.150 mm
# Sample.SDD_position: 205.000 mm
# Scan.experimenters: Bruce Ravel
# Scan.edge_energy: 8708.0
# Scan.start_time: 2023-05-28T15:37:59
# Scan.end_time: 2023-05-28T15:46:59
# Scan.transient_id: 78805
# Scan.uid: 4871734f-c9e9-4688-86e2-cf48e303ed82
# Scan.plot_hint: ln(It/Ir)  --  ln($6/$7)
# Column.1: energy eV
# Column.2: requested_energy eV
# Column.3: measurement_time seconds
# Column.4: xmu
# Column.5: I0 nA
# Column.6: It nA
# Column.7: Ir nA
# ///////////
# sample courtesy Martin Stennett, University of Sheffield
# -----------
# energy  requested_energy  measurement_time  xmu  I0  It  Ir
  8508.007  8508.000  0.500  1.724449  128.65  169.093  30.1445
  8538.050  8538.000  0.500  1.709453  127.957  168.855  30.5568
  8568.058  8568.000  0.500  1.695925  127.509  169  30.9995
  8598.022  8598.000  0.500  1.680818  126.773  168.665  31.409
  8628.027  8628.000  0.500  1.667272  127.197  169.943  32.0786
  8658.026  8658.000  0.500  1.653516  126.386  169.534  32.4446
  8679.989  8680.000  0.500  1.644691  125.918  169.366  32.6999
  8685.986  8686.000  0.500  1.642432  125.781  169.349  32.7706
  8691.992  8692.000  0.500  1.640444  125.653  169.278  32.822
  8697.987  8698.000  0.500  1.638835  125.491  169.225  32.8646
  8698.871  8698.900  0.500  1.638630  125.445  169.186  32.8636
  8699.782  8699.800  0.500  1.638489  125.399  169.124  32.8562
  8700.677  8700.700  0.500  1.638391  125.369  169.092  32.8533
  8701.588  8701.600  0.500  1.638356  125.307  169.048  32.8459
  8702.483  8702.500  0.500  1.638484  125.243  168.988  32.83
  8703.381  8703.400  0.500  1.638585  125.156  168.876  32.8049
  8704.290  8704.300  0.500  1.638922  125.023  168.738  32.7671
  8705.179  8705.200  0.500  1.639331  124.779  168.424  32.6928
  8706.091  8706.100  0.500  1.639705  124.172  167.624  32.5253
  8707.000  8707.000  0.500  1.640084  121.509  164.04  31.8179
  8707.893  8707.900  0.500  1.640518  111.362  150.372  29.1542
  8708.789  8708.800  0.500  1.641944  110.506  149.231  28.8916
  8709.682  8709.700  0.500  1.643379  119.454  161.346  31.1923
  8710.595  8710.600  0.500  1.645290  123.781  167.205  32.2634
  8711.492  8711.500  0.500  1.647673  124.529  168.203  32.3786
  8712.403  8712.400  0.500  1.650601  124.775  168.585  32.3573
  8713.293  8713.300  0.500  1.653693  124.878  168.711  32.2816
  8714.184  8714.200  0.500  1.656691  124.917  168.801  32.2019
  8715.105  8715.100  0.500  1.659477  124.949  168.873  32.1262
  8715.996  8716.000  0.500  1.662398  124.942  168.891  32.0358
  8716.904  8716.900  0.500  1.665644  124.934  168.909  31.9354
  8717.793  8717.800  0.500  1.669195  124.913  168.869  31.8146
  8718.691  8718.700  0.500  1.673654  124.923  168.936  31.6857
  8719.606  8719.600  0.500  1.679287  124.901  168.892  31.4995
  8720.505  8720.500  0.500  1.685756  124.879  168.866  31.2916
  8721.397  8721.400  0.500  1.692737  124.869  168.867  31.0742
  8722.290  8722.300  0.500  1.699908  124.849  168.877  30.8538
  8723.196  8723.200  0.500  1.706549  124.832  168.894  30.6527
  8724.099  8724.100  0.500  1.711671  124.805  168.868  30.4915
  8725.002  8725.000  0.500  1.715290  124.778  168.846  30.3773
  8725.889  8725.900  0.500  1.717872  124.773  168.844  30.2986
  8726.792  8726.800  0.500  1.719606  125.136  169.341  30.3352
  8727.699  8727.700  0.500  1.721116  125.134  169.389  30.298
  8728.675  8728.600  0.500  1.722980  125.119  169.385  30.2409
  8729.471  8729.500  0.500  1.724942  125.066  169.336  30.1729
  8730.369  8730.400  0.500  1.727403  125.034  169.287  30.09
  8731.273  8731.300  0.500  1.730319  124.948  169.223  29.991
  8732.220  8732.200  0.500  1.733856  124.928  169.212  29.8832
  8733.017  8733.000  0.500  1.736710  124.914  169.225  29.8004
  8736.028  8736.010  0.500  1.742027  124.85  169.197  29.6373
  8739.224  8739.200  0.500  1.738053  124.78  169.165  29.7497
  8742.581  8742.560  0.500  1.733387  124.719  169.16  29.888
  8746.099  8746.080  0.500  1.725626  124.638  169.127  30.1149
  8749.797  8749.780  0.500  1.717409  124.571  169.104  30.3593
  8753.653  8753.650  0.500  1.709043  124.49  169.071  30.6084
  8757.720  8757.700  0.500  1.704238  124.403  169.043  30.7507
  8761.926  8761.910  0.500  1.702604  124.312  169.008  30.7948
  8766.292  8766.290  0.500  1.701819  124.204  168.956  30.8094
  8770.858  8770.850  0.500  1.701905  124.141  168.94  30.8038
  8775.590  8775.580  0.500  1.701804  124.044  168.943  30.8075
  8780.491  8780.480  0.500  1.701563  123.935  168.881  30.8035
  8785.556  8785.550  0.500  1.701501  123.806  168.811  30.7928
  8790.784  8790.790  0.500  1.700511  123.693  168.768  30.8154
  8796.217  8796.210  0.500  1.698800  123.565  168.725  30.8603
  8801.794  8801.790  0.500  1.695287  123.45  168.663  30.9576
  8807.559  8807.550  0.500  1.690889  123.324  168.625  31.087
  8813.488  8813.480  0.500  1.686486  123.201  168.576  31.215
  8819.596  8819.580  0.500  1.681701  123.072  168.555  31.3609
  8825.853  8825.850  0.500  1.677288  122.934  168.469  31.4835
  8832.315  8832.290  0.500  1.674136  122.794  168.403  31.5705
  8838.910  8838.900  0.500  1.671902  122.657  168.342  31.6297
  8845.700  8845.690  0.500  1.670284  122.527  168.324  31.6774
  8852.657  8852.650  0.500  1.668113  122.382  168.261  31.7344
  8859.786  8859.770  0.500  1.664518  122.223  168.149  31.8275
  8867.083  8867.070  0.500  1.660469  122.222  168.321  31.9893
  8874.549  8874.550  0.500  1.656745  122.147  168.37  32.1181
  8882.197  8882.190  0.500  1.653799  121.949  168.24  32.188
  8890.014  8890.000  0.500  1.650811  121.805  168.193  32.2752
  8898.006  8897.990  0.500  1.647009  121.609  168.066  32.3737
  8906.170  8906.150  0.500  1.642357  121.412  167.967  32.5055
  8914.476  8914.470  0.500  1.637668  121.255  167.927  32.6505
  8922.993  8922.970  0.500  1.633585  120.796  167.449  32.6908
  8931.657  8931.650  0.500  1.630258  118.654  164.65  32.2514
  8940.514  8940.490  0.500  1.627058  120.786  167.767  32.9674
  8949.520  8949.500  0.500  1.623489  120.584  167.676  33.0673
  8958.724  8958.690  0.500  1.619124  120.38  167.577  33.1924
  8968.031  8968.050  0.500  1.614709  120.144  167.419  33.3078
  8977.573  8977.570  0.500  1.610471  119.943  167.32  33.4294
  8987.285  8987.270  0.500  1.606373  119.673  167.132  33.5289
  8997.158  8997.150  0.500  1.602081  119.467  167.009  33.6485
  9007.197  9007.190  0.500  1.597556  119.231  166.886  33.7761
  9017.412  9017.400  0.500  1.592609  118.998  166.761  33.9183
  9027.795  9027.790  0.500  1.587748  118.859  166.738  34.0789
  9038.355  9038.350  0.500  1.583416  118.59  166.576  34.1935
  9049.091  9049.080  0.500  1.579018  118.317  166.389  34.3057
  9059.998  9059.980  0.500  1.574471  118.085  166.253  34.4339
  9071.081  9071.050  0.500  1.569668  117.829  166.089  34.5656
  9082.309  9082.290  0.500  1.564793  116.34  164.197  34.3387
  9093.723  9093.710  0.500  1.560051  117.294  165.742  34.8266
  9105.301  9105.290  0.500  1.555057  116.283  164.523  34.7436
  9117.068  9117.050  0.500  1.550019  116.756  165.399  35.105
  9129.002  9128.980  0.500  1.545079  116.45  165.166  35.2292
  9141.097  9141.080  0.500  1.539912  116.076  164.856  35.345
  9153.370  9153.350  0.500  1.534734  115.855  164.753  35.5065
  9165.811  9165.790  0.500  1.529533  115.53  164.512  35.6393
  9178.432  9178.410  0.500  1.524234  115.295  164.386  35.8012
  9191.198  9191.190  0.500  1.519071  115.079  164.289  35.9654
  9204.182  9204.150  0.500  1.513725  114.653  163.919  36.0768
  9217.307  9217.280  0.500  1.508416  114.343  163.697  36.2197
  9230.588  9230.580  0.500  1.503109  114.014  163.423  36.3513
  9244.066  9244.050  0.500  1.497647  113.668  163.166  36.4931
  9257.721  9257.700  0.500  1.491973  113.319  162.867  36.6335
  9271.537  9271.510  0.500  1.486400  112.988  162.633  36.7852
  9285.517  9285.500  0.500  1.480902  112.656  162.395  36.9338
  9299.686  9299.660  0.500  1.475145  110.485  159.474  36.4789
  9313.997  9313.990  0.500  1.469610  111.984  161.841  37.2259
  9328.511  9328.490  0.500  1.463964  111.643  161.623  37.3862
  9343.180  9343.160  0.500  1.458212  111.284  161.308  37.5286
  9358.013  9358.000  0.500  1.452281  110.916  161.008  37.6817
  9373.035  9373.020  0.500  1.446509  110.556  160.721  37.8323
  9388.221  9388.200  0.500  1.440765  110.175  160.408  37.976
  9403.590  9403.560  0.500  1.434880  109.816  160.099  38.1266
  9419.107  9419.090  0.500  1.429181  109.411  159.763  38.264
  9434.814  9434.790  0.500  1.423192  109.033  159.414  38.4098
  9450.691  9450.660  0.500  1.417139  108.646  159.111  38.5695
  9466.731  9466.710  0.500  1.411149  108.22  158.717  38.7052
  9482.943  9482.920  0.500  1.405135  108.263  159.024  39.0139
  9499.333  9499.310  0.500  1.399084  107.877  158.673  39.1641
  9515.898  9515.870  0.500  1.393009  107.471  158.294  39.3086
  9532.620  9532.600  0.500  1.386836  107.052  157.931  39.4613
  9549.529  9549.500  0.500  1.380780  106.647  157.554  39.6062
  9560.891  9560.860  0.500  1.376746  106.369  157.299  39.7021