File: xdidata/Tb/Tb-L3-Tb2TiO5.xdi
# XDI/1.0 BlueSky/1.10.0 BMM/2023-1.0-py310-tiled
# Beamline.name: BMM (06BM) -- Beamline for Materials Measurement (NIST)
# Beamline.xray_source: NSLS-II three-pole wiggler
# Beamline.collimation: paraboloid mirror, 5 nm Rh on 30 nm Pt
# Beamline.focusing: not in use
# Beamline.harmonic_rejection: flat mirror, Si stripe, pitch = 7.0 mrad relative to beam
# Beamline.software: Bluesky 1.10.0, Ophyd 1.7.0, DataBroker 2.0.0b13, Python 3.10.8, 2023-1.0-py310-tiled
# Detector.I0: 10 cm N2
# Detector.I1: 25 cm N2
# Detector.I2: 25 cm N2
# Element.symbol: Tb
# Element.edge: L3
# Element.reference: Tb
# Element.reference_material: Tb4O9
# Facility.name: NSLS-II
# Facility.energy: 3.0
# Facility.current: 398.9
# Facility.mode: top-off
# Facility.GUP: 123456
# Facility.SAF: 301027
# Facility.cycle: 2023-2
# Mono.name: Si(111)
# Mono.d_spacing: 3.13519
# Mono.encoder_resolution: 0.0000050 deg/ct
# Mono.angle_offset: 16.0754 deg
# Mono.scan_mode: pseudo channel cut
# Mono.scan_type: step
# Mono.direction: forward in energy
# Sample.name: Tb2TiO5
# Sample.prep: Powder in PEG pellet
# Sample.x: 149.848 mm
# Sample.y: 114.690 mm
# Sample.SDD_position: 205.000 mm
# Scan.experimenters: Bruce Ravel
# Scan.edge_energy: 7514.0
# Scan.start_time: 2023-05-08T18:26:01
# Scan.end_time: 2023-05-08T18:31:47
# Scan.transient_id: 75490
# Scan.uid: 0ee3688c-75ae-42e4-a407-a42b1b8c132b
# Scan.plot_hint: ln(I0/It)  --  ln($5/$6)
# Column.1: energy eV
# Column.2: requested_energy eV
# Column.3: measurement_time seconds
# Column.4: xmu
# Column.5: I0 nA
# Column.6: It nA
# Column.7: Ir nA
# ///////////
# sample courtesy Martin Stennett, University of Sheffield
# -----------
# energy  requested_energy  measurement_time  xmu  I0  It  Ir
  7314.009  7314.000  0.500  1.184881  147.149  44.9955  11.1645
  7334.017  7334.000  0.500  1.170217  147.076  45.6377  11.4516
  7354.025  7354.000  0.500  1.156050  146.892  46.2309  11.7278
  7374.013  7374.000  0.500  1.141836  146.749  46.8472  12.0146
  7394.015  7394.000  0.500  1.127816  146.607  47.4626  12.3038
  7414.003  7414.000  0.500  1.114174  146.463  48.067  12.5914
  7434.000  7434.000  0.500  1.100089  146.069  48.6179  12.8576
  7454.001  7454.000  0.500  1.086960  142.617  48.0963  12.8442
  7473.995  7474.000  0.500  1.074999  145.724  49.7353  13.3905
  7485.993  7486.000  0.500  1.069856  145.547  49.931  13.4839
  7489.988  7490.000  0.500  1.069060  145.47  49.9445  13.4883
  7493.990  7494.000  0.500  1.068857  145.437  49.9432  13.4777
  7497.992  7498.000  0.500  1.070629  145.391  49.839  13.416
  7501.992  7502.000  0.500  1.075819  145.311  49.5536  13.2664
  7504.477  7504.500  0.500  1.082616  145.256  49.1994  13.0828
  7505.482  7505.500  0.500  1.086871  145.25  48.9884  12.978
  7506.482  7506.500  0.500  1.092441  145.242  48.7138  12.8416
  7507.480  7507.500  0.500  1.099848  145.186  48.3355  12.6573
  7508.483  7508.500  0.500  1.110341  145.146  47.8179  12.4097
  7509.484  7509.500  0.500  1.125672  145.136  47.0871  12.0596
  7510.493  7510.500  0.500  1.145029  145.125  46.181  11.6228
  7511.487  7511.500  0.500  1.165528  145.085  45.2314  11.1438
  7512.485  7512.500  0.500  1.191125  145.058  44.08  10.5912
  7513.492  7513.500  0.500  1.232728  145.055  42.2829  9.854434
  7514.494  7514.500  0.500  1.303548  145.03  39.3853  8.749464
  7515.490  7515.500  0.500  1.411023  145.004  35.3656  7.276503
  7516.490  7516.500  0.500  1.560969  144.98  30.4359  5.562274
  7517.496  7517.500  0.500  1.710417  144.949  26.2054  4.159590
  7518.497  7518.500  0.500  1.812950  144.949  23.6516  3.266111
  7519.491  7519.500  0.500  1.865572  144.931  22.4365  2.757016
  7520.498  7520.500  0.500  1.866617  144.898  22.4079  2.606687
  7521.500  7521.500  0.500  1.806956  144.872  23.7812  2.785356
  7522.500  7522.500  0.500  1.709799  144.826  26.1993  3.171741
  7523.497  7523.500  0.500  1.607850  144.806  29.0072  3.618278
  7524.498  7524.500  0.500  1.521790  144.801  31.613  4.012114
  7525.501  7525.500  0.500  1.460437  144.778  33.6081  4.260248
  7526.495  7526.500  0.500  1.417928  144.755  35.0618  4.331907
  7527.496  7527.500  0.500  1.389736  144.721  36.0559  4.297410
  7528.502  7528.500  0.500  1.370213  144.683  36.7571  4.300573
  7529.497  7529.500  0.500  1.356484  144.668  37.2614  4.395291
  7530.499  7530.500  0.500  1.347463  145.263  37.7538  4.606909
  7531.504  7531.500  0.500  1.341944  145.237  37.9557  4.948063
  7532.509  7532.500  0.500  1.339872  145.21  38.0274  5.379921
  7533.502  7533.500  0.500  1.340558  145.189  37.9959  5.784197
  7534.498  7534.500  0.500  1.343691  145.15  37.867  6.073130
  7535.504  7535.500  0.500  1.347109  145.135  37.7337  6.273415
  7536.505  7536.500  0.500  1.349589  145.114  37.6348  6.411282
  7537.502  7537.500  0.500  1.349916  145.093  37.617  6.510740
  7538.494  7538.500  0.500  1.348577  145.072  37.662  6.596474
  7540.002  7539.990  0.500  1.343606  145.049  37.8438  6.722405
  7542.012  7542.010  0.500  1.337583  145.002  38.0601  6.842952
  7544.125  7544.120  0.500  1.340238  144.967  37.9499  6.823951
  7546.308  7546.300  0.500  1.354377  144.918  37.4044  6.670816
  7548.574  7548.560  0.500  1.374942  144.872  36.6314  6.475064
  7550.900  7550.890  0.500  1.396717  144.826  35.831  6.258834
  7553.307  7553.300  0.500  1.416132  144.771  35.1289  6.040148
  7555.782  7555.780  0.500  1.421239  144.731  34.9401  5.912112
  7558.348  7558.340  0.500  1.405853  144.659  35.4643  5.950703
  7560.987  7560.980  0.500  1.382569  144.619  36.2896  6.095077
  7563.708  7563.700  0.500  1.363854  144.588  36.9673  6.219095
  7566.495  7566.490  0.500  1.352387  144.534  37.3798  6.284444
  7569.359  7569.350  0.500  1.345598  144.508  37.6276  6.345918
  7572.295  7572.290  0.500  1.341961  144.454  37.7504  6.414617
  7575.322  7575.310  0.500  1.338485  144.417  37.8722  6.500247
  7578.419  7578.410  0.500  1.335245  144.338  37.9744  6.585421
  7581.584  7581.580  0.500  1.333538  144.305  38.0306  6.649956
  7584.838  7584.830  0.500  1.334200  144.241  37.9887  6.675637
  7588.161  7588.150  0.500  1.335649  144.179  37.9174  6.687088
  7591.558  7591.550  0.500  1.337326  144.088  37.8299  6.687147
  7595.044  7595.030  0.500  1.340293  144.004  37.6958  6.672717
  7598.596  7598.580  0.500  1.344514  143.883  37.5055  6.635878
  7602.217  7602.210  0.500  1.347445  142.425  37.0166  6.541529
  7605.918  7605.910  0.500  1.346779  143.311  37.2719  6.578437
  7609.692  7609.690  0.500  1.342886  143.128  37.3695  6.584182
  7613.551  7613.550  0.500  1.337578  143.155  37.5755  6.609790
  7617.489  7617.480  0.500  1.333297  143.172  37.7411  6.627099
  7621.505  7621.490  0.500  1.329502  143.369  37.9367  6.645679
  7625.595  7625.580  0.500  1.325814  143.477  38.1057  6.666343
  7629.749  7629.740  0.500  1.320961  143.456  38.2854  6.711796
  7633.992  7633.980  0.500  1.314985  143.406  38.5014  6.782776
  7638.302  7638.290  0.500  1.308894  143.334  38.717  6.863302
  7642.697  7642.680  0.500  1.303789  143.272  38.8986  6.946942
  7647.162  7647.150  0.500  1.300141  143.161  39.0104  7.015273
  7651.700  7651.690  0.500  1.298569  143.11  39.0579  7.061929
  7656.316  7656.310  0.500  1.298827  143.027  39.0251  7.074076
  7661.015  7661.000  0.500  1.300326  142.952  38.9462  7.059377
  7665.781  7665.770  0.500  1.301088  142.852  38.8894  7.045966
  7670.632  7670.620  0.500  1.300415  142.779  38.8957  7.043971
  7675.566  7675.550  0.500  1.296912  142.652  38.9975  7.067855
  7680.564  7680.550  0.500  1.292738  142.532  39.1276  7.119796
  7685.637  7685.620  0.500  1.288279  142.325  39.2455  7.172316
  7690.784  7690.770  0.500  1.283998  142.436  39.4445  7.231566
  7696.013  7696.000  0.500  1.279892  142.288  39.5657  7.267153
  7701.321  7701.310  0.500  1.275985  142.126  39.6754  7.292565
  7706.704  7706.690  0.500  1.272386  138.715  38.8628  7.144393
  7712.168  7712.150  0.500  1.268835  141.976  39.9178  7.345407
  7717.700  7717.680  0.500  1.265058  141.767  40.0099  7.381417
  7723.300  7723.290  0.500  1.260470  141.786  40.1992  7.444141
  7728.987  7728.970  0.500  1.256053  141.632  40.3333  7.507805
  7734.754  7734.740  0.500  1.252912  141.469  40.4137  7.560507
  7740.584  7740.570  0.500  1.251057  138.476  39.632  7.445831
  7746.504  7746.490  0.500  1.248781  141.274  40.525  7.638379
  7752.493  7752.480  0.500  1.246469  141.109  40.5713  7.664669
  7758.569  7758.550  0.500  1.243466  141  40.6619  7.698694
  7764.701  7764.690  0.500  1.238904  140.868  40.8098  7.743631
  7770.926  7770.910  0.500  1.233765  140.721  40.9772  7.798429
  7777.212  7777.200  0.500  1.228765  140.551  41.1328  7.855420
  7783.587  7783.570  0.500  1.224813  140.411  41.2545  7.908639
  7790.034  7790.020  0.500  1.221259  140.27  41.3598  7.957168
  7796.568  7796.550  0.500  1.218125  140.11  41.4422  7.998776
  7803.163  7803.150  0.500  1.214671  139.958  41.5405  8.039786
  7809.839  7809.820  0.500  1.210648  139.793  41.6588  8.083644
  7816.587  7816.570  0.500  1.205772  139.618  41.81  8.133983
  7823.416  7823.400  0.500  1.200260  139.475  41.9982  8.197695
  7830.324  7830.310  0.500  1.195054  139.264  42.1533  8.260045
  7837.295  7837.290  0.500  1.190681  139.131  42.2977  8.327441
  7844.369  7844.350  0.500  1.186481  138.933  42.4155  8.388077
  7851.490  7851.480  0.500  1.182910  138.731  42.5051  8.438182
  7858.698  7858.690  0.500  1.180247  138.521  42.5542  8.477795
  7865.994  7865.980  0.500  1.176680  138.362  42.6571  8.529524
  7873.354  7873.340  0.500  1.172795  138.155  42.759  8.577285
  7880.789  7880.780  0.500  1.167593  137.952  42.9188  8.639380
  7888.295  7888.290  0.500  1.162326  137.749  43.082  8.704676
  7895.901  7895.880  0.500  1.156925  137.544  43.2508  8.775267
  7903.559  7903.550  0.500  1.151591  137.281  43.399  8.840223
  7911.308  7911.290  0.500  1.146586  137.084  43.5544  8.907534
  7919.125  7919.110  0.500  1.142511  136.846  43.6562  8.963101
  7927.026  7927.010  0.500  1.138396  136.523  43.7327  9.013373
  7934.998  7934.980  0.500  1.134192  136.263  43.8334  9.067197
  7943.039  7943.030  0.500  1.129321  136.755  44.2065  9.181620
  7951.173  7951.150  0.500  1.124273  135.499  44.0222  9.180317
  7959.363  7959.350  0.500  1.118923  136.15  44.4708  9.311654
  7967.646  7967.630  0.500  1.113909  135.866  44.6012  9.378820
  7976.022  7975.980  0.500  1.109063  135.381  44.658  9.431761
  7984.417  7984.410  0.500  1.103862  134.983  44.7586  9.494119
  7992.929  7992.910  0.500  1.099238  134.747  44.8874  9.562725
  8001.503  8001.490  0.500  1.094794  134.467  44.9938  9.626465
  8010.173  8010.150  0.500  1.090118  134.352  45.1661  9.706449
  8018.915  8018.890  0.500  1.084783  134.226  45.3651  9.790813
  8027.723  8027.700  0.500  1.079354  133.962  45.5222  9.868896
  8036.609  8036.580  0.500  1.073802  133.655  45.6709  9.945090
  8045.516  8045.540  0.500  1.068287  133.336  45.8137  10.0138
  8054.571  8054.580  0.500  1.062856  132.897  45.9117  10.0795
  8059.145  8059.130  0.500  1.060328  130.608  45.235  9.951806