File: xdidata/Cu/Cu-Cufoil.xdi
# XDI/1.0 BlueSky/1.10.0 BMM/2023-1.0-py310-tiled
# Beamline.name: BMM (06BM) -- Beamline for Materials Measurement (NIST)
# Beamline.xray_source: NSLS-II three-pole wiggler
# Beamline.collimation: paraboloid mirror, 5 nm Rh on 30 nm Pt
# Beamline.focusing: not in use
# Beamline.harmonic_rejection: flat mirror, Pt stripe, pitch = 7.0 mrad relative to beam
# Beamline.software: Bluesky 1.10.0, Ophyd 1.7.0, DataBroker 2.0.0b13, Python 3.10.8, 2023-1.0-py310-tiled
# Detector.I0: 10 cm N2
# Detector.I1: 25 cm N2
# Detector.I2: 25 cm N2
# Element.symbol: Cu
# Element.edge: K
# Element.reference: Cu
# Element.reference_material: Cu foil
# Facility.name: NSLS-II
# Facility.energy: 3.0
# Facility.current: 400.7
# Facility.mode: top-off
# Facility.GUP: 123456
# Facility.SAF: 301027
# Facility.cycle: 2023-2
# Mono.name: Si(111)
# Mono.d_spacing: 3.13519
# Mono.encoder_resolution: 0.0000050 deg/ct
# Mono.angle_offset: 16.0754 deg
# Mono.scan_mode: pseudo channel cut
# Mono.scan_type: step
# Mono.direction: forward in energy
# Sample.name: Cu metal
# Sample.prep: reference metal
# Sample.x: 116.329 mm
# Sample.y: 114.126 mm
# Sample.SDD_position: 205.000 mm
# Scan.experimenters: Bruce Ravel
# Scan.edge_energy: 8978.9
# Scan.start_time: 2023-05-06T12:36:03
# Scan.end_time: 2023-05-06T12:43:56
# Scan.transient_id: 74793
# Scan.uid: 6fc5776a-8f3f-4c58-8524-579e661c6461
# Scan.plot_hint: ln(It/Ir)  --  ln($6/$7)
# Column.1: energy eV
# Column.2: requested_energy eV
# Column.3: measurement_time seconds
# Column.4: xmu
# Column.5: I0 nA
# Column.6: It nA
# Column.7: Ir nA
# ///////////
# reference foil
# -----------
# energy  requested_energy  measurement_time  xmu  I0  It  Ir
  8778.946  8778.900  0.500  0.656676  121.863  143.816  74.5789
  8808.950  8808.900  0.500  0.650040  121.28  143.869  75.1033
  8838.930  8838.900  0.500  0.643662  120.698  143.866  75.5823
  8868.927  8868.900  0.500  0.637388  120.096  143.912  76.0823
  8898.909  8898.900  0.500  0.631516  120.506  145.126  77.1756
  8928.898  8928.900  0.500  0.626665  119.884  145.092  77.5328
  8950.879  8950.900  0.500  0.624991  119.43  145.051  77.6411
  8956.870  8956.900  0.500  0.625600  119.361  145.116  77.6284
  8962.876  8962.900  0.500  0.627407  119.246  145.101  77.4804
  8968.876  8968.900  0.500  0.632116  119.112  145.088  77.1094
  8969.763  8969.800  0.500  0.633299  119.091  145.089  77.0189
  8970.667  8970.700  0.500  0.634750  119.07  145.08  76.9022
  8971.574  8971.600  0.500  0.636528  119.041  145.061  76.7557
  8972.479  8972.500  0.500  0.638828  119.007  145.021  76.558
  8973.394  8973.400  0.500  0.641618  118.99  145.038  76.354
  8974.278  8974.300  0.500  0.645110  118.955  144.992  76.0634
  8975.190  8975.200  0.500  0.649869  118.934  145.005  75.7091
  8976.085  8976.100  0.500  0.656395  118.911  145.011  75.2197
  8976.990  8977.000  0.500  0.665804  118.885  144.972  74.4956
  8977.882  8977.900  0.500  0.680988  118.843  144.932  73.3525
  8978.794  8978.800  0.500  0.710910  118.824  144.982  71.2147
  8979.697  8979.700  0.500  0.783557  118.786  144.959  66.2141
  8980.606  8980.600  0.500  0.959336  118.753  144.966  55.5434
  8981.502  8981.500  0.500  1.184416  118.473  144.688  44.2638
  8982.385  8982.400  0.500  1.293835  118.441  144.684  39.6748
  8983.295  8983.300  0.500  1.304388  118.625  144.928  39.3245
  8984.191  8984.200  0.500  1.276649  118.606  144.936  40.4329
  8985.095  8985.100  0.500  1.269861  118.577  144.886  40.6944
  8986.005  8986.000  0.500  1.310811  118.557  144.875  39.0584
  8986.906  8986.900  0.500  1.364819  118.521  144.884  37.0072
  8987.800  8987.800  0.500  1.411379  118.49  144.869  35.3201
  8988.690  8988.700  0.500  1.466464  118.456  144.864  33.4259
  8989.598  8989.600  0.500  1.542271  118.423  144.851  30.9828
  8990.496  8990.500  0.500  1.637470  118.381  144.837  28.1666
  8991.404  8991.400  0.500  1.747435  118.325  144.791  25.2254
  8992.306  8992.300  0.500  1.864731  118.399  144.925  22.4543
  8993.201  8993.200  0.500  1.972140  117.266  143.565  19.9784
  8994.099  8994.100  0.500  2.054870  116.501  142.625  18.2717
  8995.001  8995.000  0.500  2.096912  118.246  144.78  17.7841
  8995.900  8995.900  0.500  2.090795  118.477  145.104  17.9332
  8996.803  8996.800  0.500  2.053891  118.44  145.066  18.6025
  8997.702  8997.700  0.500  2.010708  118.398  145.039  19.4199
  8998.608  8998.600  0.500  1.972816  118.352  144.993  20.1634
  8999.497  8999.500  0.500  1.948853  118.303  144.963  20.6482
  9000.404  9000.400  0.500  1.946532  118.211  144.86  20.6814
  9001.290  9001.300  0.500  1.969520  118.077  144.698  20.1889
  9002.201  9002.200  0.500  2.016262  117.283  143.79  19.146
  9003.104  9003.100  0.500  2.073422  115.931  142.148  17.8757
  9003.904  9003.900  0.500  2.110307  117.645  144.262  17.4847
  9006.924  9006.910  0.500  2.033073  118.143  144.934  18.9766
  9010.111  9010.100  0.500  1.931893  116.347  142.805  20.6886
  9013.478  9013.460  0.500  1.884238  118.066  144.984  22.0296
  9016.985  9016.980  0.500  1.917109  117.93  144.905  21.3056
  9020.698  9020.680  0.500  1.999688  115.944  142.557  19.299
  9024.561  9024.550  0.500  2.082366  117.82  144.969  18.0682
  9028.610  9028.600  0.500  2.096800  117.713  144.914  17.8025
  9032.817  9032.810  0.500  1.999377  117.613  144.878  19.6193
  9037.201  9037.190  0.500  1.941661  117.5  144.826  20.7775
  9041.772  9041.750  0.500  1.955788  116.25  143.394  20.2835
  9046.506  9046.480  0.500  1.960659  117.249  144.712  20.3705
  9051.387  9051.380  0.500  1.980797  117.155  144.716  19.965
  9056.457  9056.450  0.500  1.989808  117.051  144.705  19.7844
  9061.695  9061.690  0.500  2.027309  116.828  144.539  19.0342
  9067.124  9067.110  0.500  2.057327  116.793  144.624  18.4822
  9072.705  9072.690  0.500  2.098174  116.669  144.606  17.7403
  9078.459  9078.450  0.500  2.064532  116.536  144.562  18.3417
  9084.385  9084.380  0.500  1.990268  116.372  144.47  19.7431
  9090.493  9090.480  0.500  1.950964  116.247  144.46  20.5331
  9096.755  9096.750  0.500  1.897009  116.102  144.418  21.6652
  9103.194  9103.190  0.500  1.889308  114.968  143.112  21.6352
  9109.807  9109.800  0.500  1.948609  115.782  144.288  20.557
  9116.598  9116.590  0.500  1.974353  115.631  144.255  20.03
  9123.569  9123.550  0.500  1.986976  115.462  144.201  19.7713
  9130.675  9130.670  0.500  2.077662  115.277  144.114  18.0463
  9137.980  9137.970  0.500  2.075614  115.062  143.984  18.0671
  9145.474  9145.450  0.500  2.013339  114.871  143.899  19.2166
  9153.103  9153.090  0.500  1.905868  114.676  143.823  21.3855
  9160.915  9160.900  0.500  1.831286  114.663  143.972  23.0653
  9168.911  9168.890  0.500  1.892321  112.982  142.042  21.4087
  9177.081  9177.050  0.500  1.948519  114.261  143.827  20.4931
  9185.394  9185.370  0.500  1.939424  114.184  143.902  20.6912
  9193.893  9193.870  0.500  1.929775  113.899  143.722  20.8657
  9202.576  9202.550  0.500  1.932613  113.628  143.555  20.7824
  9211.407  9211.390  0.500  1.979318  113.41  143.476  19.8232
  9220.417  9220.400  0.500  1.962575  113.679  143.992  20.2304
  9229.614  9229.590  0.500  1.901285  113.454  143.86  21.4893
  9238.974  9238.950  0.500  1.850773  113.224  143.771  22.5887
  9248.493  9248.470  0.500  1.852632  113.015  143.71  22.5372
  9258.198  9258.170  0.500  1.855057  112.779  143.609  22.4668
  9268.080  9268.050  0.500  1.865829  112.53  143.465  22.2037
  9278.124  9278.090  0.500  1.876820  112.316  143.41  21.9526
  9288.333  9288.300  0.500  1.881402  112.037  143.267  21.8305
  9298.720  9298.690  0.500  1.883476  109.812  140.619  21.3825
  9309.274  9309.250  0.500  1.862141  111.624  143.142  22.2356
  9320.002  9319.980  0.500  1.834521  111.334  142.989  22.8339
  9330.902  9330.880  0.500  1.825568  111.088  142.878  23.0213
  9341.971  9341.950  0.500  1.805121  110.805  142.728  23.4723
  9353.207  9353.190  0.500  1.800004  110.526  142.585  23.569
  9364.625  9364.610  0.500  1.800549  110.276  142.459  23.5354
  9376.212  9376.190  0.500  1.802470  109.983  142.329  23.4687
  9387.962  9387.950  0.500  1.803181  109.704  142.177  23.4271
  9399.894  9399.880  0.500  1.799641  109.425  142.056  23.4901
  9411.995  9411.980  0.500  1.785395  109.132  141.871  23.7961
  9424.274  9424.250  0.500  1.768315  108.831  141.724  24.181
  9436.708  9436.690  0.500  1.761489  108.037  140.913  24.2072
  9449.323  9449.310  0.500  1.751119  108.211  141.368  24.5387
  9462.111  9462.090  0.500  1.740143  107.893  141.197  24.7795
  9475.066  9475.050  0.500  1.732785  107.589  141.037  24.9341
  9488.206  9488.180  0.500  1.729577  107.271  140.844  24.98
  9501.484  9501.480  0.500  1.728795  106.932  140.635  24.9625
  9514.972  9514.950  0.500  1.724757  106.602  140.445  25.0295
  9528.616  9528.600  0.500  1.711786  106.271  140.244  25.32
  9542.435  9542.410  0.500  1.700644  105.922  140.033  25.5652
  9556.425  9556.400  0.500  1.692219  105.571  139.812  25.7409
  9570.583  9570.560  0.500  1.683886  105.213  139.586  25.9142
  9584.915  9584.890  0.500  1.675112  104.855  139.348  26.0982
  9599.418  9599.390  0.500  1.667565  104.491  139.103  26.2497
  9614.138  9614.060  0.500  1.661550  104.123  138.853  26.3605
  9628.973  9628.900  0.500  1.656027  103.727  138.584  26.455
  9643.950  9643.920  0.500  1.649009  103.339  138.304  26.5876
  9659.121  9659.100  0.500  1.640943  102.943  138.033  26.7504
  9674.482  9674.460  0.500  1.632766  102.515  137.7  26.905
  9690.030  9689.990  0.500  1.624048  102.113  137.378  27.0771
  9705.760  9705.690  0.500  1.615865  101.687  137.067  27.2378
  9721.547  9721.560  0.500  1.607629  101.31  136.832  27.416
  9737.665  9737.610  0.500  1.599823  100.891  136.512  27.5661
  9753.800  9753.820  0.500  1.592940  100.472  136.189  27.6909
  9770.192  9770.210  0.500  1.585969  99.9558  135.745  27.7938
  9786.744  9786.770  0.500  1.578184  99.6383  135.561  27.973
  9803.462  9803.500  0.500  1.570582  99.0591  135.024  28.0748
  9820.371  9820.400  0.500  1.562456  98.52  134.549  28.2043
  9831.745  9831.760  0.500  1.556889  98.7978  135.093  28.4765