File: xdidata/Au/Au-L1-GoldAcetate.xdi
# XDI/1.0 BlueSky/1.10.0 BMM/2023-1.0-py310-tiled
# Beamline.name: BMM (06BM) -- Beamline for Materials Measurement (NIST)
# Beamline.xray_source: NSLS-II three-pole wiggler
# Beamline.collimation: paraboloid mirror, 5 nm Rh on 30 nm Pt
# Beamline.focusing: not in use
# Beamline.harmonic_rejection: flat mirror, Pt stripe, pitch = 7.0 mrad relative to beam
# Beamline.software: Bluesky 1.10.0, Ophyd 1.7.0, DataBroker 2.0.0b13, Python 3.10.8, 2023-1.0-py310-tiled
# Detector.I0: 10 cm N2
# Detector.I1: 25 cm N2
# Detector.I2: 25 cm N2
# Element.symbol: Au
# Element.edge: L1
# Element.reference: Au
# Element.reference_material: Au foil
# Facility.name: NSLS-II
# Facility.energy: 3.0
# Facility.current: 400.2
# Facility.mode: top-off
# Facility.GUP: 301027
# Facility.SAF: 310583
# Facility.cycle: 2023-2
# Mono.name: Si(111)
# Mono.d_spacing: 3.13519
# Mono.encoder_resolution: 0.0000050 deg/ct
# Mono.angle_offset: 16.0754 deg
# Mono.scan_mode: pseudo channel cut
# Mono.scan_type: step
# Mono.direction: forward in energy
# Sample.name: Au(C2H3O2)3, gold scetate
# Sample.prep: powder on tape
# Sample.x: 145.711 mm
# Sample.y: 114.376 mm
# Sample.SDD_position: 205.000 mm
# Scan.experimenters: Bruce Ravel
# Scan.edge_energy: 14352.8
# Scan.start_time: 2023-06-27T20:36:29
# Scan.end_time: 2023-06-27T20:44:16
# Scan.transient_id: 85303
# Scan.uid: e0957071-d6e3-4ff7-96a0-32c466f3bf60
# Scan.plot_hint: ln(I0/It)  --  ln($5/$6)
# Column.1: energy eV
# Column.2: requested_energy eV
# Column.3: measurement_time seconds
# Column.4: xmu
# Column.5: I0 nA
# Column.6: It nA
# Column.7: Ir nA
# ///////////
# sample courtesy Martin Stennett, University of Sheffield
# -----------
# energy  requested_energy  measurement_time  xmu  I0  It  Ir
  14152.564  14152.800  0.500  1.067533  34.4572  11.8483  6.699823
  14182.871  14182.800  0.500  1.060909  34.3583  11.8928  6.742780
  14212.877  14212.800  0.500  1.054528  34.1145  11.884  6.751746
  14242.835  14242.800  0.500  1.046006  33.8894  11.9066  6.786294
  14272.849  14272.800  0.500  1.038003  31.8943  11.2957  6.456710
  14302.875  14302.800  0.500  1.034521  33.4322  11.8817  6.804842
  14324.843  14324.800  0.500  1.032699  33.3068  11.8587  6.794669
  14330.810  14330.800  0.500  1.032854  33.2459  11.8352  6.780414
  14336.801  14336.800  0.500  1.034108  33.2266  11.8135  6.766857
  14342.787  14342.800  0.500  1.037838  33.173  11.7505  6.722029
  14343.677  14343.700  0.500  1.038779  33.1437  11.7291  6.709188
  14344.586  14344.600  0.500  1.039933  33.1281  11.7101  6.695976
  14345.467  14345.500  0.500  1.041376  33.1382  11.6967  6.685551
  14346.376  14346.400  0.500  1.042619  33.1415  11.6834  6.674398
  14347.267  14347.300  0.500  1.044248  33.135  11.6621  6.657992
  14348.167  14348.200  0.500  1.046264  33.1214  11.6338  6.637874
  14349.058  14349.100  0.500  1.048848  33.1236  11.6046  6.617077
  14349.994  14350.000  0.500  1.051570  33.1089  11.5679  6.590049
  14350.894  14350.900  0.500  1.055019  33.1077  11.5276  6.560407
  14351.776  14351.800  0.500  1.058790  33.0914  11.4786  6.522729
  14352.695  14352.700  0.500  1.063654  33.0787  11.4185  6.478402
  14353.613  14353.600  0.500  1.069397  33.0745  11.3517  6.427874
  14354.496  14354.500  0.500  1.075817  33.0604  11.2742  6.371562
  14355.379  14355.400  0.500  1.083152  33.0631  11.1927  6.310544
  14356.289  14356.300  0.500  1.091421  33.0448  11.0944  6.236962
  14357.172  14357.200  0.500  1.100167  33.0268  10.9918  6.162951
  14358.091  14358.100  0.500  1.109055  32.9897  10.8824  6.084108
  14359.010  14359.000  0.500  1.118235  32.9421  10.7673  6.000620
  14359.893  14359.900  0.500  1.126672  32.927  10.672  5.931120
  14360.813  14360.800  0.500  1.135819  32.9734  10.5897  5.868105
  14361.714  14361.700  0.500  1.144632  32.9785  10.4984  5.800515
  14362.598  14362.600  0.500  1.153480  33.0002  10.4128  5.735011
  14363.482  14363.500  0.500  1.162579  32.9787  10.3117  5.663039
  14364.393  14364.400  0.500  1.171056  32.9699  10.222  5.596596
  14365.286  14365.300  0.500  1.179291  32.9636  10.1362  5.535977
  14366.206  14366.200  0.500  1.186552  32.9458  10.0574  5.480090
  14367.099  14367.100  0.500  1.192096  32.9102  9.991006  5.433635
  14368.020  14368.000  0.500  1.196262  32.89  9.943379  5.398837
  14368.922  14368.900  0.500  1.198879  32.8695  9.911197  5.377692
  14369.798  14369.800  0.500  1.200554  32.8971  9.902940  5.371178
  14370.691  14370.700  0.500  1.200767  32.9199  9.907682  5.374044
  14371.585  14371.600  0.500  1.200092  32.9028  9.909208  5.376240
  14372.488  14372.500  0.500  1.198717  32.9006  9.922209  5.385406
  14373.391  14373.400  0.500  1.196867  32.9038  9.941527  5.399593
  14374.312  14374.300  0.500  1.194753  32.8833  9.956366  5.411190
  14375.207  14375.200  0.500  1.192124  32.8553  9.974089  5.425966
  14376.110  14376.100  0.500  1.189546  32.8279  9.991491  5.438901
  14376.995  14377.000  0.500  1.186704  32.7831  10.0062  5.452629
  14377.800  14377.800  0.500  1.184509  32.7895  10.0302  5.470899
  14380.819  14380.810  0.500  1.178509  32.8286  10.1026  5.521150
  14384.029  14384.000  0.500  1.179644  32.7937  10.0804  5.507161
  14387.358  14387.360  0.500  1.187371  32.7309  9.983665  5.439495
  14390.897  14390.880  0.500  1.196922  32.7556  9.896200  5.374450
  14394.601  14394.580  0.500  1.200087  32.7338  9.858380  5.348790
  14398.479  14398.450  0.500  1.194141  32.6976  9.906209  5.387262
  14402.522  14402.500  0.500  1.184816  32.8008  10.0306  5.470916
  14406.704  14406.710  0.500  1.180895  32.7593  10.0572  5.494264
  14411.105  14411.090  0.500  1.180616  32.6304  10.0204  5.473435
  14415.628  14415.650  0.500  1.181326  32.6893  10.0314  5.478982
  14420.381  14420.380  0.500  1.182640  32.6604  10.0094  5.464652
  14425.283  14425.280  0.500  1.184230  32.6192  9.980871  5.446704
  14430.361  14430.350  0.500  1.185700  32.588  9.956697  5.431193
  14435.588  14435.590  0.500  1.183898  32.529  9.956592  5.435421
  14441.047  14441.010  0.500  1.178308  32.5388  10.0154  5.475321
  14446.584  14446.590  0.500  1.173863  32.358  10.0041  5.480250
  14452.362  14452.350  0.500  1.171708  32.4478  10.0535  5.510528
  14458.281  14458.280  0.500  1.170771  32.3944  10.0464  5.509309
  14464.362  14464.380  0.500  1.168919  32.3492  10.051  5.514438
  14470.657  14470.650  0.500  1.166574  32.3081  10.0618  5.526717
  14477.078  14477.090  0.500  1.165207  32.266  10.0624  5.529231
  14483.651  14483.700  0.500  1.164798  32.1984  10.0454  5.521305
  14490.469  14490.490  0.500  1.164468  32.1631  10.0377  5.517261
  14497.403  14497.450  0.500  1.162408  32.1171  10.0441  5.524477
  14504.694  14504.570  0.500  1.159764  32.0574  10.0519  5.535774
  14511.845  14511.870  0.500  1.156702  31.9957  10.0633  5.548570
  14519.325  14519.350  0.500  1.153981  31.9548  10.0779  5.562584
  14526.961  14526.990  0.500  1.151417  31.9175  10.0919  5.573772
  14534.809  14534.800  0.500  1.148336  31.8517  10.1022  5.587016
  14542.785  14542.790  0.500  1.147085  31.7989  10.0981  5.587830
  14550.945  14550.950  0.500  1.147134  31.6969  10.0652  5.569114
  14559.264  14559.270  0.500  1.146354  31.6788  10.0673  5.571968
  14567.768  14567.770  0.500  1.144281  31.618  10.0688  5.577380
  14576.449  14576.450  0.500  1.141068  31.5554  10.0813  5.590645
  14585.281  14585.290  0.500  1.136562  31.4881  10.1052  5.612291
  14594.328  14594.300  0.500  1.132195  31.4312  10.1311  5.635761
  14603.489  14603.490  0.500  1.129331  31.3718  10.1409  5.646758
  14612.830  14612.850  0.500  1.127773  31.2965  10.1324  5.644481
  14622.389  14622.370  0.500  1.126753  31.2352  10.1228  5.644615
  14632.044  14632.070  0.500  1.124240  31.1773  10.1295  5.651775
  14641.965  14641.950  0.500  1.122178  31.1023  10.126  5.655068
  14652.004  14651.990  0.500  1.119129  31.0368  10.1355  5.666797
  14662.197  14662.200  0.500  1.114669  30.9536  10.1535  5.683352
  14672.583  14672.590  0.500  1.110675  30.8915  10.1737  5.704670
  14683.145  14683.150  0.500  1.108277  30.8006  10.1681  5.706188
  14693.901  14693.880  0.500  1.106659  30.7525  10.1687  5.710167
  14704.797  14704.780  0.500  1.104175  30.6799  10.1699  5.716142
  14715.869  14715.850  0.500  1.100898  30.6102  10.1801  5.729084
  14727.120  14727.090  0.500  1.098124  30.5337  10.1829  5.737254
  14738.540  14738.510  0.500  1.094659  30.3464  10.1555  5.729178
  14750.101  14750.090  0.500  1.090826  30.3889  10.2088  5.766590
  14761.853  14761.850  0.500  1.087015  30.3074  10.2203  5.781427
  14773.785  14773.780  0.500  1.083901  30.2227  10.2235  5.790226
  14785.919  14785.880  0.500  1.081455  30.1263  10.2159  5.790737
  14798.169  14798.150  0.500  1.078379  30.0681  10.2276  5.801648
  14810.612  14810.590  0.500  1.075485  29.9782  10.2265  5.810089
  14823.220  14823.210  0.500  1.072100  29.899  10.2341  5.820483
  14835.994  14835.990  0.500  1.068324  29.7806  10.2321  5.827472
  14848.983  14848.950  0.500  1.064347  29.7111  10.2489  5.845257
  14862.131  14862.080  0.500  1.060846  29.6996  10.2809  5.871385
  14875.409  14875.380  0.500  1.057481  29.6454  10.2967  5.887503
  14888.885  14888.850  0.500  1.054446  29.5491  10.2945  5.893862
  14902.580  14902.500  0.500  1.051101  29.466  10.2999  5.904379
  14916.349  14916.310  0.500  1.047460  29.3767  10.3062  5.914661
  14930.339  14930.300  0.500  1.043585  29.2903  10.3157  5.927853
  14944.492  14944.460  0.500  1.039602  29.1968  10.3239  5.942742
  14958.829  14958.790  0.500  1.035683  29.1064  10.3323  5.955456
  14973.331  14973.290  0.500  1.032111  28.9687  10.3202  5.956798
  14988.009  14987.960  0.500  1.028281  28.903  10.3363  5.972776
  15002.834  15002.800  0.500  1.024768  28.8228  10.3439  5.987181
  15017.846  15017.820  0.500  1.021145  28.7232  10.3456  5.994077
  15033.048  15033.000  0.500  1.017362  28.6313  10.3516  6.005356
  15048.399  15048.360  0.500  1.013207  28.5407  10.3618  6.020987
  15063.900  15063.890  0.500  1.008963  28.4372  10.3681  6.033230
  15079.594  15079.590  0.500  1.004903  28.33  10.3711  6.044088
  15095.450  15095.460  0.500  1.000651  28.2373  10.3812  6.059716
  15111.529  15111.510  0.500  0.997061  28.1294  10.3787  6.067772
  15127.733  15127.720  0.500  0.993046  28.0367  10.3861  6.080537
  15144.163  15144.110  0.500  0.988995  27.9293  10.3883  6.088513
  15160.709  15160.670  0.500  0.985106  27.7759  10.3715  6.089185
  15177.433  15177.400  0.500  0.980942  27.7226  10.3948  6.112270
  15194.356  15194.300  0.500  0.976490  27.6171  10.4014  6.124962
  15205.669  15205.660  0.500  0.973721  27.5522  10.4058  6.134919