File: xdidata/Au/Au-L1-GoldFoil.xdi
# XDI/1.0 BlueSky/1.10.0 BMM/2023-1.0-py310-tiled
# Beamline.name: BMM (06BM) -- Beamline for Materials Measurement (NIST)
# Beamline.xray_source: NSLS-II three-pole wiggler
# Beamline.collimation: paraboloid mirror, 5 nm Rh on 30 nm Pt
# Beamline.focusing: not in use
# Beamline.harmonic_rejection: flat mirror, Pt stripe, pitch = 7.0 mrad relative to beam
# Beamline.software: Bluesky 1.10.0, Ophyd 1.7.0, DataBroker 2.0.0b13, Python 3.10.8, 2023-1.0-py310-tiled
# Detector.I0: 10 cm N2
# Detector.I1: 25 cm N2
# Detector.I2: 25 cm N2
# Element.symbol: Au
# Element.edge: L1
# Element.reference: Au
# Element.reference_material: Au foil
# Facility.name: NSLS-II
# Facility.energy: 3.0
# Facility.current: 399.3
# Facility.mode: top-off
# Facility.GUP: 301027
# Facility.SAF: 310583
# Facility.cycle: 2023-2
# Mono.name: Si(111)
# Mono.d_spacing: 3.13519
# Mono.encoder_resolution: 0.0000050 deg/ct
# Mono.angle_offset: 16.0754 deg
# Mono.scan_mode: pseudo channel cut
# Mono.scan_type: step
# Mono.direction: forward in energy
# Sample.name: Au foil
# Sample.prep: reference foil
# Sample.x: 109.138 mm
# Sample.y: 153.150 mm
# Sample.SDD_position: 205.000 mm
# Scan.experimenters: Bruce Ravel
# Scan.edge_energy: 14352.8
# Scan.start_time: 2023-05-28T21:16:02
# Scan.end_time: 2023-05-28T21:23:30
# Scan.transient_id: 79022
# Scan.uid: 98e7ac45-160f-475e-a7c4-6604776e5a9e
# Scan.plot_hint: ln(It/Ir)  --  ln($6/$7)
# Column.1: energy eV
# Column.2: requested_energy eV
# Column.3: measurement_time seconds
# Column.4: xmu
# Column.5: I0 nA
# Column.6: It nA
# Column.7: Ir nA
# ///////////
# Welcome to BMM
# -----------
# energy  requested_energy  measurement_time  xmu  I0  It  Ir
  14152.730  14152.800  0.500  0.594283  33.7992  60.5635  33.4285
  14182.810  14182.800  0.500  0.591612  33.699  60.4195  33.4382
  14212.771  14212.800  0.500  0.589140  33.4806  60.0537  33.3181
  14242.746  14242.800  0.500  0.585737  33.4669  60.0661  33.4385
  14272.778  14272.800  0.500  0.582660  32.4427  58.2584  32.5321
  14302.767  14302.800  0.500  0.580927  33.0593  59.3916  33.2225
  14324.744  14324.800  0.500  0.579909  32.9004  59.1316  33.1107
  14330.739  14330.800  0.500  0.579997  32.8227  58.9976  33.0328
  14336.747  14336.800  0.500  0.580226  32.7999  58.9611  33.0048
  14342.751  14342.800  0.500  0.581450  32.7316  58.8406  32.897
  14343.614  14343.700  0.500  0.581907  32.737  58.8543  32.8896
  14344.559  14344.600  0.500  0.582170  32.7009  58.7946  32.8476
  14345.431  14345.500  0.500  0.582635  32.7202  58.8311  32.8528
  14346.322  14346.400  0.500  0.583162  32.7191  58.8261  32.8327
  14347.258  14347.300  0.500  0.583825  32.7022  58.798  32.7952
  14348.149  14348.200  0.500  0.584410  32.6922  58.7812  32.7667
  14349.049  14349.100  0.500  0.585300  32.6874  58.7777  32.7356
  14349.994  14350.000  0.500  0.586353  32.6635  58.7303  32.6748
  14350.867  14350.900  0.500  0.587441  32.6664  58.7381  32.6436
  14351.785  14351.800  0.500  0.588947  32.6664  58.7328  32.5915
  14352.713  14352.700  0.500  0.590672  32.6493  58.709  32.5221
  14353.604  14353.600  0.500  0.592596  32.6362  58.6793  32.4432
  14354.496  14354.500  0.500  0.595014  32.6197  58.6625  32.3556
  14355.415  14355.400  0.500  0.597620  32.6194  58.6594  32.2696
  14356.298  14356.300  0.500  0.600307  32.6137  58.6511  32.1785
  14357.190  14357.200  0.500  0.603220  32.5815  58.5957  32.0546
  14358.100  14358.100  0.500  0.606031  32.5093  58.4677  31.8948
  14359.001  14359.000  0.500  0.608876  32.5178  58.473  31.8071
  14359.875  14359.900  0.500  0.611595  32.5171  58.4814  31.7253
  14360.786  14360.800  0.500  0.614544  32.5436  58.5305  31.6584
  14361.678  14361.700  0.500  0.617400  32.5413  58.5238  31.5645
  14362.598  14362.600  0.500  0.620326  32.5425  58.5262  31.4736
  14363.491  14363.500  0.500  0.623102  32.5254  58.5008  31.3727
  14364.384  14364.400  0.500  0.625827  32.5116  58.4739  31.273
  14365.322  14365.300  0.500  0.628355  32.5076  58.4727  31.1934
  14366.215  14366.200  0.500  0.630227  32.4926  58.4374  31.1162
  14367.099  14367.100  0.500  0.631697  32.4495  58.3631  31.031
  14368.011  14368.000  0.500  0.632757  32.44  58.3424  30.9871
  14368.922  14368.900  0.500  0.633093  32.4615  58.3836  30.9986
  14369.807  14369.800  0.500  0.633364  32.4632  58.3921  30.9947
  14370.691  14370.700  0.500  0.633210  32.4938  58.4555  31.0331
  14371.585  14371.600  0.500  0.632873  32.4646  58.393  31.0104
  14372.515  14372.500  0.500  0.632306  32.4441  58.3606  31.0108
  14373.382  14373.400  0.500  0.631575  32.4348  58.3393  31.0221
  14374.276  14374.300  0.500  0.630794  32.4121  58.3037  31.0274
  14375.188  14375.200  0.500  0.629960  32.3884  58.2642  31.0323
  14376.092  14376.100  0.500  0.628875  32.3435  58.1767  31.0193
  14376.986  14377.000  0.500  0.627977  32.3461  58.1899  31.0542
  14377.782  14377.800  0.500  0.627259  32.3682  58.225  31.0953
  14380.837  14380.810  0.500  0.625781  32.3857  58.2659  31.1631
  14384.029  14384.000  0.500  0.626552  32.322  58.1462  31.0752
  14387.349  14387.360  0.500  0.629300  32.2983  58.1086  30.9698
  14390.870  14390.880  0.500  0.632341  32.3098  58.1354  30.89
  14394.610  14394.580  0.500  0.632575  32.2844  58.096  30.8619
  14398.488  14398.450  0.500  0.630060  32.2462  58.0285  30.9036
  14402.486  14402.500  0.500  0.627198  32.3046  58.138  31.0507
  14406.740  14406.710  0.500  0.626045  32.2917  58.1087  31.0709
  14411.105  14411.090  0.500  0.626024  32.1095  57.7957  30.9041
  14415.646  14415.650  0.500  0.626226  32.2349  58.0291  31.0227
  14420.399  14420.380  0.500  0.626659  32.1593  57.8919  30.9359
  14425.301  14425.280  0.500  0.627051  32.1786  57.9317  30.9451
  14430.343  14430.350  0.500  0.627306  32.1136  57.8188  30.8769
  14435.616  14435.590  0.500  0.626423  32.0941  57.7868  30.887
  14441.002  14441.010  0.500  0.624527  32.0529  57.7236  30.9119
  14446.602  14446.590  0.500  0.623092  31.9719  57.5806  30.8795
  14452.334  14452.350  0.500  0.622362  31.9682  57.5815  30.9026
  14458.272  14458.280  0.500  0.622005  31.9211  57.5031  30.8715
  14464.398  14464.380  0.500  0.621177  31.8817  57.4323  30.8591
  14470.685  14470.650  0.500  0.620297  31.8618  57.4016  30.8697
  14477.096  14477.090  0.500  0.619718  31.8012  57.298  30.8319
  14483.715  14483.700  0.500  0.619568  31.7436  57.2045  30.7861
  14490.487  14490.490  0.500  0.619288  31.7033  57.1375  30.7587
  14497.477  14497.450  0.500  0.618487  31.6513  57.0443  30.7331
  14504.565  14504.570  0.500  0.617472  31.6006  56.9618  30.7198
  14511.891  14511.870  0.500  0.616391  31.5479  56.8763  30.7069
  14519.344  14519.350  0.500  0.615354  31.5078  56.806  30.7008
  14527.007  14526.990  0.500  0.614380  31.4505  56.7099  30.6787
  14534.827  14534.800  0.500  0.613110  31.3873  56.6057  30.6613
  14542.812  14542.790  0.500  0.612630  31.3533  56.5519  30.6468
  14550.982  14550.950  0.500  0.612599  31.2579  56.3837  30.5566
  14559.254  14559.270  0.500  0.612163  31.2296  56.3411  30.5469
  14567.805  14567.770  0.500  0.611284  31.1679  56.2394  30.5185
  14576.496  14576.450  0.500  0.610005  31.108  56.1448  30.5062
  14585.281  14585.290  0.500  0.608413  31.0419  56.0228  30.4884
  14594.300  14594.300  0.500  0.606919  30.9912  55.9503  30.4945
  14603.508  14603.490  0.500  0.605893  30.9288  55.8418  30.4666
  14612.886  14612.850  0.500  0.605272  30.8446  55.699  30.4075
  14622.370  14622.370  0.500  0.604579  30.804  55.6318  30.3919
  14632.072  14632.070  0.500  0.603857  30.7306  55.5101  30.3473
  14641.994  14641.950  0.500  0.602993  30.6508  55.3789  30.3017
  14652.023  14651.990  0.500  0.601733  30.6  55.2981  30.2957
  14662.225  14662.200  0.500  0.600035  30.5144  55.1383  30.2595
  14672.602  14672.590  0.500  0.598687  30.4631  55.058  30.2562
  14683.173  14683.150  0.500  0.597708  30.3871  54.9344  30.2178
  14693.864  14693.880  0.500  0.596954  30.382  54.9287  30.2375
  14704.825  14704.780  0.500  0.595841  30.3117  54.809  30.2052
  14715.869  14715.850  0.500  0.594791  30.2673  54.7372  30.1973
  14727.129  14727.090  0.500  0.593658  30.1798  54.5892  30.1498
  14738.549  14738.510  0.500  0.592387  30.0722  54.4071  30.0874
  14750.111  14750.090  0.500  0.591007  30.0264  54.3386  30.0911
  14761.843  14761.850  0.500  0.589582  29.9358  54.1818  30.047
  14773.747  14773.780  0.500  0.588245  29.8647  54.0621  30.0208
  14785.881  14785.880  0.500  0.587332  29.7492  53.858  29.9347
  14798.169  14798.150  0.500  0.586213  29.6996  53.7817  29.9258
  14810.631  14810.590  0.500  0.585062  29.62  53.6435  29.8832
  14823.220  14823.210  0.500  0.583768  29.5328  53.5  29.8419
  14836.023  14835.990  0.500  0.582368  29.3542  53.1825  29.7063
  14848.964  14848.950  0.500  0.580898  29.3571  53.2053  29.7628
  14862.121  14862.080  0.500  0.579500  29.2231  52.966  29.6704
  14875.418  14875.380  0.500  0.578123  29.1933  52.9277  29.6898
  14888.875  14888.850  0.500  0.576893  29.1621  52.8776  29.6982
  14902.570  14902.500  0.500  0.575681  29.1122  52.8013  29.6913
  14916.388  14916.310  0.500  0.574280  29.0215  52.6401  29.6422
  14930.368  14930.300  0.500  0.572722  28.9244  52.4748  29.5952
  14944.482  14944.460  0.500  0.571238  28.8382  52.3305  29.5576
  14958.878  14958.790  0.500  0.569675  28.7494  52.1795  29.5184
  14973.321  14973.290  0.500  0.568460  28.6428  51.998  29.4515
  14987.970  14987.960  0.500  0.567102  28.5546  51.8514  29.4084
  15002.804  15002.800  0.500  0.565732  28.466  51.6985  29.3619
  15017.866  15017.820  0.500  0.564369  28.3788  51.5464  29.3154
  15033.018  15033.000  0.500  0.562969  28.2765  51.3742  29.2584
  15048.399  15048.360  0.500  0.561332  28.1876  51.2281  29.223
  15063.920  15063.890  0.500  0.559698  28.0805  51.0433  29.1652
  15079.604  15079.590  0.500  0.558178  27.9859  50.8825  29.1176
  15095.519  15095.460  0.500  0.556673  27.8834  50.7104  29.0628
  15111.529  15111.510  0.500  0.555124  27.7813  50.5321  29.0055
  15127.763  15127.720  0.500  0.553786  27.6873  50.3736  28.9532
  15144.113  15144.110  0.500  0.552212  27.5861  50.1989  28.8983
  15160.719  15160.670  0.500  0.550687  27.4327  49.9264  28.7852
  15177.423  15177.400  0.500  0.549068  27.3824  49.8485  28.7869
  15194.346  15194.300  0.500  0.547472  27.2775  49.6736  28.7317
  15205.690  15205.660  0.500  0.546417  27.2053  49.5508  28.6909