File: xdidata/Au/Au-L3-GoldSulfide.xdi
# XDI/1.0 BlueSky/1.10.0 BMM/2023-1.0-py310-tiled
# Beamline.name: BMM (06BM) -- Beamline for Materials Measurement (NIST)
# Beamline.xray_source: NSLS-II three-pole wiggler
# Beamline.collimation: paraboloid mirror, 5 nm Rh on 30 nm Pt
# Beamline.focusing: not in use
# Beamline.harmonic_rejection: flat mirror, Pt stripe, pitch = 7.0 mrad relative to beam
# Beamline.software: Bluesky 1.10.0, Ophyd 1.7.0, DataBroker 2.0.0b13, Python 3.10.8, 2023-1.0-py310-tiled
# Detector.I0: 10 cm N2
# Detector.I1: 25 cm N2
# Detector.I2: 25 cm N2
# Element.symbol: Au
# Element.edge: L3
# Element.reference: Au
# Element.reference_material: Au foil
# Facility.name: NSLS-II
# Facility.energy: 3.0
# Facility.current: 400.1
# Facility.mode: top-off
# Facility.GUP: 301027
# Facility.SAF: 310583
# Facility.cycle: 2023-2
# Mono.name: Si(111)
# Mono.d_spacing: 3.13519
# Mono.encoder_resolution: 0.0000050 deg/ct
# Mono.angle_offset: 16.0754 deg
# Mono.scan_mode: pseudo channel cut
# Mono.scan_type: step
# Mono.direction: forward in energy
# Sample.name: Au2S
# Sample.prep: powder on tape
# Sample.x: 145.711 mm
# Sample.y: 114.376 mm
# Sample.SDD_position: 205.000 mm
# Scan.experimenters: Bruce Ravel
# Scan.edge_energy: 11918.7
# Scan.start_time: 2023-06-27T17:41:20
# Scan.end_time: 2023-06-27T17:49:46
# Scan.transient_id: 85197
# Scan.uid: 479f9061-9891-4efa-8304-bf5b872cde12
# Scan.plot_hint: ln(I0/It)  --  ln($5/$6)
# Column.1: energy eV
# Column.2: requested_energy eV
# Column.3: measurement_time seconds
# Column.4: xmu
# Column.5: I0 nA
# Column.6: It nA
# Column.7: Ir nA
# ///////////
# Welcome to BMM
# -----------
# energy  requested_energy  measurement_time  xmu  I0  It  Ir
  11718.714  11718.700  0.500  0.618285  64.3393  34.6704  22.0532
  11748.788  11748.700  0.500  0.608873  63.8513  34.7328  22.1671
  11778.770  11778.700  0.500  0.599491  63.3424  34.7807  22.2688
  11808.739  11808.700  0.500  0.590476  63.1254  34.9755  22.4664
  11838.765  11838.700  0.500  0.581946  62.7566  35.069  22.5871
  11868.732  11868.700  0.500  0.574951  62.3684  35.0967  22.6592
  11890.682  11890.700  0.500  0.573616  62.0523  34.9655  22.5745
  11896.666  11896.700  0.500  0.575111  61.977  34.8709  22.4929
  11902.669  11902.700  0.500  0.579032  61.2401  34.3214  22.1011
  11908.825  11908.700  0.500  0.588711  61.8163  34.3107  21.9974
  11909.548  11909.600  0.500  0.590776  61.8235  34.2438  21.9335
  11910.455  11910.500  0.500  0.593627  61.7929  34.1295  21.8302
  11911.357  11911.400  0.500  0.596987  61.7802  34.008  21.7188
  11912.264  11912.300  0.500  0.600885  61.7631  33.8663  21.5912
  11913.129  11913.200  0.500  0.605401  61.7194  33.6899  21.4359
  11914.130  11914.100  0.500  0.611727  61.905  33.5781  21.2983
  11915.032  11915.000  0.500  0.619090  61.8715  33.3137  21.0554
  11915.940  11915.900  0.500  0.628499  61.7793  32.9525  20.7324
  11916.830  11916.800  0.500  0.640518  61.4063  32.3623  20.2422
  11917.739  11917.700  0.500  0.656246  61.185  31.7425  19.6936
  11918.635  11918.600  0.500  0.677164  61.4156  31.2025  19.152
  11919.519  11919.500  0.500  0.705897  61.7146  30.4664  18.428
  11920.410  11920.400  0.500  0.746100  61.799  29.3058  17.3731
  11921.294  11921.300  0.500  0.801679  61.7991  27.7216  16.0175
  11922.203  11922.200  0.500  0.873895  61.805  25.7926  14.4808
  11923.107  11923.100  0.500  0.952419  61.7853  23.8372  13.046
  11924.010  11924.000  0.500  1.019939  61.7679  22.2745  11.9608
  11924.901  11924.900  0.500  1.063090  61.7591  21.3308  11.3215
  11925.799  11925.800  0.500  1.083150  61.7471  20.9031  11.0178
  11926.709  11926.700  0.500  1.086018  61.7275  20.8366  10.9556
  11927.613  11927.600  0.500  1.081358  61.715  20.9297  11.0007
  11928.517  11928.500  0.500  1.077655  61.7116  21.0062  11.0405
  11929.409  11929.400  0.500  1.080307  61.6847  20.9414  10.9991
  11930.313  11930.300  0.500  1.088865  61.671  20.7584  10.8806
  11931.199  11931.200  0.500  1.100754  61.6561  20.5081  10.7105
  11932.097  11932.100  0.500  1.113306  61.6379  20.2463  10.5263
  11932.990  11933.000  0.500  1.123341  61.6135  20.0362  10.3687
  11933.895  11933.900  0.500  1.129274  61.508  19.8836  10.2433
  11934.794  11934.800  0.500  1.131432  61.0667  19.6983  10.1155
  11935.693  11935.700  0.500  1.130787  60.9157  19.6623  10.0719
  11936.592  11936.600  0.500  1.130065  61.1723  19.7594  10.1072
  11937.497  11937.500  0.500  1.130798  61.4598  19.8377  10.1389
  11938.409  11938.400  0.500  1.133171  61.5049  19.8052  10.115
  11939.315  11939.300  0.500  1.137242  61.4961  19.7219  10.059
  11940.208  11940.200  0.500  1.142539  61.4965  19.6179  9.990018
  11941.108  11941.100  0.500  1.147933  61.4849  19.5086  9.917295
  11942.008  11942.000  0.500  1.152710  61.4812  19.4145  9.851691
  11942.902  11942.900  0.500  1.157284  61.4538  19.3173  9.783569
  11943.703  11943.700  0.500  1.160964  61.4397  19.242  9.719780
  11946.709  11946.710  0.500  1.174320  61.402  18.975  9.357282
  11949.915  11949.900  0.500  1.186944  61.3552  18.7227  9.154024
  11953.279  11953.260  0.500  1.194728  61.3072  18.563  9.238936
  11956.781  11956.780  0.500  1.199453  61.2629  18.4621  9.237370
  11960.479  11960.480  0.500  1.206545  61.211  18.3161  9.203725
  11964.359  11964.350  0.500  1.214429  61.1487  18.1538  9.062901
  11968.410  11968.400  0.500  1.222008  61.0978  18.0017  8.864483
  11972.621  11972.610  0.500  1.225191  61.0284  17.9241  8.779494
  11977.002  11976.990  0.500  1.221645  60.9782  17.973  8.869540
  11981.537  11981.550  0.500  1.211528  60.8976  18.1318  9.004562
  11986.288  11986.280  0.500  1.197364  60.8332  18.371  9.161197
  11991.181  11991.180  0.500  1.184203  60.7665  18.5939  9.329961
  11996.265  11996.250  0.500  1.176479  60.6964  18.7165  9.411872
  12001.486  12001.490  0.500  1.174609  60.6281  18.7304  9.390805
  12006.925  12006.910  0.500  1.175722  60.5582  18.688  9.307816
  12012.494  12012.490  0.500  1.177843  60.4877  18.6267  9.262446
  12018.257  12018.250  0.500  1.180195  60.415  18.5606  9.263397
  12024.202  12024.180  0.500  1.183286  60.335  18.4788  9.244946
  12030.298  12030.280  0.500  1.186882  60.2593  18.3894  9.205321
  12036.564  12036.550  0.500  1.187100  60.1687  18.3578  9.203348
  12043.013  12042.990  0.500  1.181287  60.0628  18.4323  9.275534
  12049.609  12049.600  0.500  1.171785  59.0325  18.289  9.232744
  12056.402  12056.390  0.500  1.164637  59.8711  18.682  9.427552
  12063.367  12063.350  0.500  1.160241  59.7834  18.7367  9.437163
  12070.480  12070.470  0.500  1.157818  59.691  18.7532  9.434803
  12077.773  12077.770  0.500  1.156436  59.7723  18.8047  9.459057
  12085.253  12085.250  0.500  1.155752  59.6636  18.7833  9.457015
  12092.914  12092.890  0.500  1.156429  59.388  18.6839  9.406949
  12100.738  12100.700  0.500  1.157999  59.4696  18.6802  9.417653
  12108.700  12108.690  0.500  1.158610  59.3715  18.638  9.439865
  12116.871  12116.850  0.500  1.156312  59.2668  18.648  9.466501
  12125.187  12125.170  0.500  1.151711  59.1473  18.6962  9.500046
  12133.676  12133.670  0.500  1.146436  59.0511  18.7645  9.528719
  12142.350  12142.350  0.500  1.141566  58.9283  18.8169  9.536772
  12151.190  12151.190  0.500  1.137227  58.8046  18.8591  9.543277
  12160.205  12160.200  0.500  1.133429  58.665  18.8859  9.576374
  12169.394  12169.390  0.500  1.130094  58.5682  18.9177  9.631013
  12178.753  12178.750  0.500  1.127833  58.4359  18.9177  9.668294
  12188.275  12188.270  0.500  1.126445  58.3031  18.9009  9.663948
  12197.987  12197.970  0.500  1.125013  58.1701  18.8848  9.667084
  12207.877  12207.850  0.500  1.122335  58.0543  18.8978  9.679653
  12217.906  12217.890  0.500  1.118490  57.9241  18.928  9.687703
  12228.116  12228.100  0.500  1.113872  57.7939  18.9729  9.708840
  12238.486  12238.490  0.500  1.108783  57.5012  18.9731  9.735432
  12249.070  12249.050  0.500  1.103711  57.4996  19.0691  9.819990
  12259.803  12259.780  0.500  1.099201  57.3553  19.1072  9.857252
  12270.700  12270.680  0.500  1.094978  57.0636  19.0905  9.858769
  12281.774  12281.750  0.500  1.091409  57.0669  19.1598  9.910012
  12293.027  12292.990  0.500  1.088108  56.4896  19.0287  9.848400
  12304.439  12304.410  0.500  1.085130  56.7482  19.1728  9.925775
  12316.011  12315.990  0.500  1.081803  56.5901  19.1831  9.941915
  12327.770  12327.750  0.500  1.078087  56.4002  19.1899  9.970779
  12339.712  12339.680  0.500  1.073542  56.2815  19.2368  10.0254
  12351.803  12351.780  0.500  1.068583  56.1188  19.2765  10.0639
  12364.072  12364.050  0.500  1.063884  55.9025  19.2927  10.0834
  12376.532  12376.490  0.500  1.058720  55.811  19.3608  10.1256
  12389.138  12389.110  0.500  1.053893  55.6615  19.4024  10.1629
  12401.945  12401.890  0.500  1.049452  55.492  19.4294  10.19
  12414.892  12414.850  0.500  1.045275  55.3184  19.4497  10.2224
  12428.015  12427.980  0.500  1.041030  55.1451  19.4712  10.2544
  12441.321  12441.280  0.500  1.036543  54.9905  19.504  10.2977
  12454.770  12454.750  0.500  1.032026  54.7479  19.5058  10.3166
  12468.439  12468.400  0.500  1.027275  54.5931  19.5433  10.353
  12482.268  12482.210  0.500  1.022243  54.4323  19.584  10.3866
  12496.243  12496.200  0.500  1.016842  54.2876  19.6378  10.4316
  12510.400  12510.360  0.500  1.011420  54.0974  19.6754  10.4708
  12524.733  12524.690  0.500  1.006152  53.9094  19.7105  10.5126
  12539.230  12539.190  0.500  1.000996  53.6537  19.7185  10.5405
  12553.918  12553.860  0.500  0.996038  53.5396  19.7743  10.5929
  12568.745  12568.700  0.500  0.990975  53.3441  19.8021  10.6295
  12583.752  12583.720  0.500  0.985985  53.1476  19.8279  10.6609
  12598.941  12598.900  0.500  0.980824  52.9537  19.8577  10.6919
  12614.292  12614.260  0.500  0.975635  52.765  19.8899  10.7292
  12629.834  12629.790  0.500  0.970251  52.5454  19.9141  10.766
  12645.519  12645.490  0.500  0.964504  52.3768  19.9646  10.8182
  12661.390  12661.360  0.500  0.958872  52.1793  20.0016  10.8602
  12677.463  12677.410  0.500  0.953231  51.9755  20.0362  10.904
  12693.669  12693.620  0.500  0.947580  51.7754  20.0722  10.944
  12710.050  12710.010  0.500  0.941840  51.565  20.1057  10.9823
  12726.601  12726.570  0.500  0.936483  51.3474  20.1284  11.0179
  12743.345  12743.300  0.500  0.930938  51.1546  20.1643  11.0598
  12760.247  12760.200  0.500  0.925456  50.9474  20.193  11.0981
  12771.595  12771.560  0.500  0.921653  50.812  20.2161  11.1283