File: xdidata/Au/Au-L1-GoldOxide.xdi
# XDI/1.0 BlueSky/1.10.0 BMM/2023-1.0-py310-tiled
# Beamline.name: BMM (06BM) -- Beamline for Materials Measurement (NIST)
# Beamline.xray_source: NSLS-II three-pole wiggler
# Beamline.collimation: paraboloid mirror, 5 nm Rh on 30 nm Pt
# Beamline.focusing: not in use
# Beamline.harmonic_rejection: flat mirror, Pt stripe, pitch = 7.0 mrad relative to beam
# Beamline.software: Bluesky 1.10.0, Ophyd 1.7.0, DataBroker 2.0.0b13, Python 3.10.8, 2023-1.0-py310-tiled
# Detector.I0: 10 cm N2
# Detector.I1: 25 cm N2
# Detector.I2: 25 cm N2
# Element.symbol: Au
# Element.edge: L1
# Element.reference: Au
# Element.reference_material: Au foil
# Facility.name: NSLS-II
# Facility.energy: 3.0
# Facility.current: 399.9
# Facility.mode: top-off
# Facility.GUP: 301027
# Facility.SAF: 310583
# Facility.cycle: 2023-2
# Mono.name: Si(111)
# Mono.d_spacing: 3.13519
# Mono.encoder_resolution: 0.0000050 deg/ct
# Mono.angle_offset: 16.0754 deg
# Mono.scan_mode: pseudo channel cut
# Mono.scan_type: step
# Mono.direction: forward in energy
# Sample.name: Au2O3, Gold oxide
# Sample.prep: powder on tape
# Sample.x: 145.711 mm
# Sample.y: 114.376 mm
# Sample.SDD_position: 205.000 mm
# Scan.experimenters: Bruce Ravel
# Scan.edge_energy: 14352.8
# Scan.start_time: 2023-06-27T20:44:48
# Scan.end_time: 2023-06-27T20:52:37
# Scan.transient_id: 85308
# Scan.uid: d4ce6a27-e782-4207-bf33-a93cd29eed75
# Scan.plot_hint: ln(I0/It)  --  ln($5/$6)
# Column.1: energy eV
# Column.2: requested_energy eV
# Column.3: measurement_time seconds
# Column.4: xmu
# Column.5: I0 nA
# Column.6: It nA
# Column.7: Ir nA
# ///////////
# sample courtesy Martin Stennett, University of Sheffield
# -----------
# energy  requested_energy  measurement_time  xmu  I0  It  Ir
  14152.564  14152.800  0.500  1.795380  34.299  5.695840  3.217571
  14182.836  14182.800  0.500  1.786777  34.2026  5.728910  3.244695
  14212.851  14212.800  0.500  1.779000  33.9688  5.734164  3.254856
  14242.879  14242.800  0.500  1.767765  33.726  5.757514  3.278528
  14272.786  14272.800  0.500  1.758540  31.6811  5.458535  3.117330
  14302.830  14302.800  0.500  1.752785  33.2731  5.765927  3.297804
  14324.771  14324.800  0.500  1.751080  33.1498  5.754359  3.294727
  14330.748  14330.800  0.500  1.751419  33.1062  5.744837  3.289426
  14336.783  14336.800  0.500  1.753527  33.0657  5.725729  3.277390
  14342.751  14342.800  0.500  1.758322  33.0156  5.689710  3.252581
  14343.623  14343.700  0.500  1.759440  33.0108  5.682510  3.247827
  14344.541  14344.600  0.500  1.761417  32.9763  5.665363  3.237377
  14345.467  14345.500  0.500  1.762869  32.9654  5.655280  3.229500
  14346.376  14346.400  0.500  1.764920  32.9808  5.646335  3.223213
  14347.276  14347.300  0.500  1.767446  32.9714  5.630482  3.212652
  14348.167  14348.200  0.500  1.770167  32.9693  5.614815  3.201392
  14349.058  14349.100  0.500  1.773420  32.9686  5.596461  3.189148
  14349.958  14350.000  0.500  1.776998  32.9592  5.574885  3.172548
  14350.858  14350.900  0.500  1.781507  32.941  5.546742  3.153244
  14351.776  14351.800  0.500  1.786996  32.9457  5.517158  3.132811
  14352.704  14352.700  0.500  1.793436  32.9246  5.478240  3.105009
  14353.595  14353.600  0.500  1.800999  32.9165  5.435626  3.075796
  14354.469  14354.500  0.500  1.809810  32.9128  5.387345  3.043143
  14355.397  14355.400  0.500  1.819941  33.0071  5.348311  3.012454
  14356.289  14356.300  0.500  1.831188  32.9924  5.286139  2.970226
  14357.181  14357.200  0.500  1.842458  32.9788  5.224757  2.926601
  14358.073  14358.100  0.500  1.854162  32.9457  5.158773  2.881552
  14359.010  14359.000  0.500  1.866548  32.8898  5.086620  2.833104
  14359.884  14359.900  0.500  1.878102  32.873  5.025630  2.790887
  14360.804  14360.800  0.500  1.890739  32.9185  4.969384  2.752682
  14361.705  14361.700  0.500  1.902896  32.952  4.914332  2.713703
  14362.598  14362.600  0.500  1.915186  32.9377  4.852197  2.671120
  14363.500  14363.500  0.500  1.927380  32.9338  4.792827  2.630602
  14364.393  14364.400  0.500  1.939132  32.9276  4.735937  2.591295
  14365.277  14365.300  0.500  1.949650  32.9217  4.685549  2.557266
  14366.188  14366.200  0.500  1.959671  32.9167  4.638119  2.525898
  14367.099  14367.100  0.500  1.967341  32.8711  4.596311  2.497612
  14367.992  14368.000  0.500  1.973425  32.8356  4.563496  2.477394
  14368.913  14368.900  0.500  1.977178  32.8262  4.545100  2.463879
  14369.825  14369.800  0.500  1.979373  32.8654  4.540555  2.460630
  14370.700  14370.700  0.500  1.980090  32.872  4.538200  2.459764
  14371.594  14371.600  0.500  1.979467  32.8562  4.538843  2.460688
  14372.479  14372.500  0.500  1.978103  32.8429  4.543206  2.464004
  14373.382  14373.400  0.500  1.975958  32.8433  4.553019  2.469522
  14374.285  14374.300  0.500  1.973065  32.827  4.563947  2.477792
  14375.188  14375.200  0.500  1.970300  32.8142  4.574796  2.486492
  14376.101  14376.100  0.500  1.966716  32.7736  4.585543  2.494056
  14377.022  14377.000  0.500  1.963298  32.7359  4.595946  2.502570
  14377.800  14377.800  0.500  1.959997  32.7553  4.613879  2.513658
  14380.800  14380.810  0.500  1.952571  32.7914  4.653387  2.540648
  14384.029  14384.000  0.500  1.954176  32.7563  4.640951  2.533348
  14387.394  14387.360  0.500  1.964119  32.6912  4.585899  2.495801
  14390.888  14390.880  0.500  1.975976  32.7138  4.534977  2.460945
  14394.610  14394.580  0.500  1.979557  32.6858  4.514906  2.447882
  14398.451  14398.450  0.500  1.971297  32.6548  4.548036  2.470973
  14402.540  14402.500  0.500  1.958961  32.6268  4.600533  2.506231
  14406.713  14406.710  0.500  1.953971  32.5926  4.618702  2.520037
  14411.078  14411.090  0.500  1.953551  32.4672  4.602871  2.511377
  14415.665  14415.650  0.500  1.954913  32.5237  4.604607  2.512325
  14420.381  14420.380  0.500  1.956676  32.4769  4.589872  2.503433
  14425.283  14425.280  0.500  1.958918  32.443  4.574819  2.494355
  14430.379  14430.350  0.500  1.961007  32.4229  4.562442  2.485638
  14435.607  14435.590  0.500  1.958988  32.3614  4.562990  2.488105
  14441.020  14441.010  0.500  1.952087  32.3584  4.594168  2.509602
  14446.602  14446.590  0.500  1.946272  32.193  4.597328  2.516028
  14452.353  14452.350  0.500  1.943089  32.2789  4.624303  2.532391
  14458.272  14458.280  0.500  1.941985  32.246  4.624689  2.533440
  14464.416  14464.380  0.500  1.939780  32.189  4.626712  2.537787
  14470.667  14470.650  0.500  1.936166  32.1421  4.636688  2.544052
  14477.060  14477.090  0.500  1.934345  32.1066  4.640012  2.547614
  14483.688  14483.700  0.500  1.933944  32.0297  4.630750  2.543165
  14490.460  14490.490  0.500  1.933497  31.9944  4.627724  2.541739
  14497.403  14497.450  0.500  1.930907  31.952  4.633571  2.546868
  14504.768  14504.570  0.500  1.927180  31.8872  4.641436  2.552659
  14511.974  14511.870  0.500  1.923246  31.8439  4.653413  2.562623
  14519.353  14519.350  0.500  1.920183  31.7948  4.660490  2.569613
  14526.998  14526.990  0.500  1.916954  31.7356  4.666848  2.575614
  14534.836  14534.800  0.500  1.912711  31.8075  4.697323  2.594355
  14542.831  14542.790  0.500  1.911161  31.7469  4.695639  2.594021
  14550.973  14550.950  0.500  1.911518  31.6537  4.680180  2.588466
  14559.291  14559.270  0.500  1.910539  31.6243  4.680415  2.588488
  14567.759  14567.770  0.500  1.908040  31.5688  4.683894  2.591859
  14576.468  14576.450  0.500  1.903327  31.5128  4.697663  2.602425
  14585.300  14585.290  0.500  1.897594  31.4422  4.714100  2.616853
  14594.319  14594.300  0.500  1.892032  31.3798  4.730986  2.629200
  14603.489  14603.490  0.500  1.887837  31.3225  4.742186  2.637845
  14612.858  14612.850  0.500  1.886113  31.2498  4.739345  2.638565
  14622.370  14622.370  0.500  1.885086  31.1944  4.735811  2.637599
  14632.081  14632.070  0.500  1.881976  31.1307  4.740863  2.643033
  14641.965  14641.950  0.500  1.879082  31.0615  4.744028  2.646654
  14651.994  14651.990  0.500  1.875107  31.0104  4.755083  2.656157
  14662.188  14662.200  0.500  1.869357  30.9094  4.766934  2.666211
  14672.602  14672.590  0.500  1.864499  30.8512  4.781129  2.679404
  14683.173  14683.150  0.500  1.861138  30.7639  4.783642  2.681530
  14693.882  14693.880  0.500  1.859168  30.7147  4.785426  2.685310
  14704.759  14704.780  0.500  1.855578  30.6304  4.789439  2.690396
  14715.878  14715.850  0.500  1.851494  30.5733  4.800076  2.698768
  14727.120  14727.090  0.500  1.847619  30.5029  4.807629  2.705251
  14738.530  14738.510  0.500  1.843377  30.3156  4.798410  2.704888
  14750.092  14750.090  0.500  1.838588  30.3439  4.825944  2.723096
  14761.862  14761.850  0.500  1.833435  30.2606  4.837566  2.734100
  14773.814  14773.780  0.500  1.829403  30.192  4.846105  2.742077
  14785.909  14785.880  0.500  1.826238  30.0952  4.845871  2.744345
  14798.169  14798.150  0.500  1.822498  30.0355  4.854385  2.751704
  14810.602  14810.590  0.500  1.818827  29.9529  4.858835  2.757799
  14823.210  14823.210  0.500  1.814018  29.8674  4.868329  2.766352
  14835.994  14835.990  0.500  1.809155  29.7466  4.872272  2.772470
  14848.983  14848.950  0.500  1.804260  29.6959  4.887838  2.785555
  14862.112  14862.080  0.500  1.799311  29.5836  4.893507  2.792327
  14875.428  14875.380  0.500  1.795379  29.5265  4.903296  2.801639
  14888.875  14888.850  0.500  1.791168  29.4301  4.907918  2.807171
  14902.531  14902.500  0.500  1.786703  29.3436  4.915395  2.814057
  14916.330  14916.310  0.500  1.782018  29.2708  4.926230  2.824870
  14930.310  14930.300  0.500  1.777090  29.1705  4.933596  2.832624
  14944.492  14944.460  0.500  1.771927  29.0891  4.945287  2.844209
  14958.790  14958.790  0.500  1.766999  28.9949  4.953630  2.852676
  14973.321  14973.290  0.500  1.762129  28.8601  4.954668  2.856887
  14987.989  14987.960  0.500  1.757240  28.7925  4.967289  2.868283
  15002.844  15002.800  0.500  1.752542  28.7167  4.977537  2.878010
  15017.866  15017.820  0.500  1.747954  28.619  4.983425  2.884861
  15033.048  15033.000  0.500  1.742962  28.5227  4.991516  2.893540
  15048.408  15048.360  0.500  1.737721  28.4283  5.001128  2.903387
  15063.910  15063.890  0.500  1.732232  28.3288  5.011049  2.913618
  15079.614  15079.590  0.500  1.727124  28.2411  5.021123  2.924676
  15095.469  15095.460  0.500  1.721514  28.127  5.028979  2.932343
  15111.509  15111.510  0.500  1.716360  28.0442  5.040077  2.943382
  15127.753  15127.720  0.500  1.711333  27.9387  5.046425  2.951267
  15144.133  15144.110  0.500  1.706037  27.8359  5.054557  2.959938
  15160.709  15160.670  0.500  1.700770  27.6696  5.050898  2.962490
  15177.443  15177.400  0.500  1.695234  27.6307  5.071782  2.978602
  15194.326  15194.300  0.500  1.689898  27.5292  5.080191  2.989717
  15205.690  15205.660  0.500  1.685818  27.4623  5.088568  2.996541