File: xdidata/Au/Au-L3-GoldAcetate.xdi
# XDI/1.0 BlueSky/1.10.0 BMM/2023-1.0-py310-tiled
# Beamline.name: BMM (06BM) -- Beamline for Materials Measurement (NIST)
# Beamline.xray_source: NSLS-II three-pole wiggler
# Beamline.collimation: paraboloid mirror, 5 nm Rh on 30 nm Pt
# Beamline.focusing: not in use
# Beamline.harmonic_rejection: flat mirror, Pt stripe, pitch = 7.0 mrad relative to beam
# Beamline.software: Bluesky 1.10.0, Ophyd 1.7.0, DataBroker 2.0.0b13, Python 3.10.8, 2023-1.0-py310-tiled
# Detector.I0: 10 cm N2
# Detector.I1: 25 cm N2
# Detector.I2: 25 cm N2
# Element.symbol: Au
# Element.edge: L3
# Element.reference: Au
# Element.reference_material: Au foil
# Facility.name: NSLS-II
# Facility.energy: 3.0
# Facility.current: 400.5
# Facility.mode: top-off
# Facility.GUP: 301027
# Facility.SAF: 310583
# Facility.cycle: 2023-2
# Mono.name: Si(111)
# Mono.d_spacing: 3.13519
# Mono.encoder_resolution: 0.0000050 deg/ct
# Mono.angle_offset: 16.0754 deg
# Mono.scan_mode: pseudo channel cut
# Mono.scan_type: step
# Mono.direction: forward in energy
# Sample.name: Au(C2H3O2)3, gold scetate
# Sample.prep: powder on tape
# Sample.x: 145.711 mm
# Sample.y: 114.376 mm
# Sample.SDD_position: 205.000 mm
# Scan.experimenters: Bruce Ravel
# Scan.edge_energy: 11918.7
# Scan.start_time: 2023-06-27T18:23:55
# Scan.end_time: 2023-06-27T18:31:45
# Scan.transient_id: 85222
# Scan.uid: f8778dea-1743-4ebf-81bb-6d42f9572a59
# Scan.plot_hint: ln(I0/It)  --  ln($5/$6)
# Column.1: energy eV
# Column.2: requested_energy eV
# Column.3: measurement_time seconds
# Column.4: xmu
# Column.5: I0 nA
# Column.6: It nA
# Column.7: Ir nA
# ///////////
# sample courtesy Martin Stennett, University of Sheffield
# -----------
# energy  requested_energy  measurement_time  xmu  I0  It  Ir
  11718.684  11718.700  0.500  0.523983  64.655  38.2859  24.3706
  11748.734  11748.700  0.500  0.515654  64.1531  38.3064  24.4622
  11778.770  11778.700  0.500  0.507484  63.6647  38.3267  24.5501
  11808.733  11808.700  0.500  0.499687  63.4099  38.4721  24.7208
  11838.729  11838.700  0.500  0.492584  63.0269  38.5123  24.8224
  11868.726  11868.700  0.500  0.487722  62.6398  38.4623  24.8487
  11890.676  11890.700  0.500  0.489647  62.3187  38.1915  24.6739
  11896.666  11896.700  0.500  0.493184  62.2418  38.0098  24.5374
  11902.669  11902.700  0.500  0.500296  61.5132  37.2986  24.0318
  11908.671  11908.700  0.500  0.515955  62.0796  37.0572  23.7737
  11909.548  11909.600  0.500  0.519845  62.0662  36.9053  23.6505
  11910.455  11910.500  0.500  0.524505  62.0521  36.7254  23.5025
  11911.369  11911.400  0.500  0.529964  62.0341  36.5149  23.3318
  11912.252  11912.300  0.500  0.536115  62.0227  36.2843  23.1419
  11913.166  11913.200  0.500  0.543824  62.0122  35.9995  22.9126
  11914.062  11914.100  0.500  0.553514  61.9844  35.6364  22.6183
  11914.976  11915.000  0.500  0.565846  61.9477  35.1788  22.2514
  11915.878  11915.900  0.500  0.581684  61.8753  34.5856  21.7768
  11916.793  11916.800  0.500  0.602537  61.4926  33.6623  21.0675
  11917.689  11917.700  0.500  0.629713  61.2585  32.6351  20.2644
  11918.598  11918.600  0.500  0.666573  61.4977  31.5769  19.402
  11919.482  11919.500  0.500  0.716430  61.79  30.184  18.2756
  11920.385  11920.400  0.500  0.784272  61.865  28.2384  16.7588
  11921.288  11921.300  0.500  0.870863  61.8593  25.8937  14.9753
  11922.197  11922.200  0.500  0.964922  61.8436  23.5632  13.2382
  11923.101  11923.100  0.500  1.046986  61.8322  21.7027  11.8809
  11924.010  11924.000  0.500  1.105641  61.8078  20.4583  10.9914
  11924.895  11924.900  0.500  1.141809  61.7889  19.7256  10.4728
  11925.805  11925.800  0.500  1.162265  61.7645  19.3185  10.1868
  11926.690  11926.700  0.500  1.170220  61.7474  19.1601  10.0804
  11927.582  11927.600  0.500  1.171443  61.7305  19.1315  10.063
  11928.504  11928.500  0.500  1.171227  61.7107  19.1295  10.0631
  11929.403  11929.400  0.500  1.173582  61.6858  19.0768  10.025
  11930.307  11930.300  0.500  1.180594  61.6699  18.9386  9.931424
  11931.199  11931.200  0.500  1.191357  61.653  18.7307  9.788143
  11932.079  11932.100  0.500  1.204557  61.6257  18.4769  9.614439
  11932.996  11933.000  0.500  1.219638  61.599  18.1925  9.421189
  11933.895  11933.900  0.500  1.233133  61.4764  17.9129  9.237682
  11934.800  11934.800  0.500  1.243839  61.0351  17.5949  9.040811
  11935.724  11935.700  0.500  1.251259  60.9107  17.4293  8.933010
  11936.604  11936.600  0.500  1.255891  61.174  17.4237  8.919404
  11937.497  11937.500  0.500  1.258637  61.447  17.4535  8.928166
  11938.390  11938.400  0.500  1.260778  61.6806  17.4823  8.933775
  11939.302  11939.300  0.500  1.264485  61.6671  17.4138  8.889212
  11940.190  11940.200  0.500  1.269594  61.6691  17.3257  8.828636
  11941.108  11941.100  0.500  1.275271  61.6558  17.2239  8.759401
  11942.002  11942.000  0.500  1.280325  61.6379  17.1321  8.701778
  11942.908  11942.900  0.500  1.286518  61.6285  17.0237  8.630390
  11943.684  11943.700  0.500  1.295029  61.6154  16.8758  8.531502
  11946.715  11946.710  0.500  1.366559  61.5747  15.7005  7.748256
  11949.909  11949.900  0.500  1.392727  61.5267  15.283  7.477828
  11953.297  11953.260  0.500  1.340370  61.4763  16.0914  8.013584
  11956.787  11956.780  0.500  1.324076  61.4304  16.3435  8.185888
  11960.497  11960.480  0.500  1.312007  61.3826  16.529  8.313671
  11964.353  11964.350  0.500  1.331786  61.3243  16.1899  8.088266
  11968.410  11968.400  0.500  1.372529  61.2687  15.5295  7.654033
  11972.621  11972.610  0.500  1.389162  61.2082  15.2582  7.478309
  11977.002  11976.990  0.500  1.367608  61.1416  15.5737  7.691740
  11981.556  11981.550  0.500  1.348892  61.0769  15.8512  7.877337
  11986.288  11986.280  0.500  1.336860  61.0112  16.0257  7.999238
  11991.200  11991.180  0.500  1.318211  60.9382  16.3079  8.189531
  11996.247  11996.250  0.500  1.312064  60.866  16.389  8.249577
  12001.499  12001.490  0.500  1.321346  60.7959  16.2189  8.138504
  12006.925  12006.910  0.500  1.341569  60.7289  15.8767  7.914531
  12012.494  12012.490  0.500  1.346740  60.6577  15.7763  7.851014
  12018.263  12018.250  0.500  1.336721  60.5785  15.9143  7.947758
  12024.145  12024.180  0.500  1.329589  60.506  16.009  8.016366
  12030.247  12030.280  0.500  1.328466  60.419  16.004  8.016184
  12036.589  12036.550  0.500  1.324352  60.3165  16.0427  8.047220
  12042.988  12042.990  0.500  1.313664  60.2257  16.1907  8.154419
  12049.596  12049.600  0.500  1.304588  59.1759  16.0535  8.108685
  12056.389  12056.390  0.500  1.306002  60.0223  16.2601  8.212613
  12063.367  12063.350  0.500  1.312055  59.935  16.1385  8.134606
  12070.461  12070.470  0.500  1.315983  59.8427  16.0504  8.080401
  12077.779  12077.770  0.500  1.317073  59.7445  16.0066  8.057067
  12085.240  12085.250  0.500  1.315089  59.6412  16.0107  8.067569
  12092.895  12092.890  0.500  1.315363  59.36  15.9309  8.024683
  12100.713  12100.700  0.500  1.311605  59.4479  16.0145  8.081818
  12108.687  12108.690  0.500  1.298834  59.3441  16.192  8.207064
  12116.858  12116.850  0.500  1.292355  59.2376  16.268  8.266329
  12125.181  12125.170  0.500  1.290117  59.1203  16.2722  8.274646
  12133.682  12133.670  0.500  1.291930  59.0187  16.2148  8.240956
  12142.337  12142.350  0.500  1.298686  58.8998  16.0732  8.152498
  12151.177  12151.190  0.500  1.303688  58.7801  15.9605  8.083649
  12160.205  12160.200  0.500  1.298904  58.6417  15.9993  8.116800
  12169.414  12169.390  0.500  1.286581  58.5315  16.1672  8.238323
  12178.785  12178.750  0.500  1.276341  58.3989  16.2966  8.336972
  12188.275  12188.270  0.500  1.274962  58.2686  16.2827  8.332280
  12197.993  12197.970  0.500  1.272302  58.133  16.2881  8.343617
  12207.890  12207.850  0.500  1.270907  58.0156  16.2778  8.345361
  12217.919  12217.890  0.500  1.274082  57.8844  16.1896  8.290152
  12228.129  12228.100  0.500  1.275083  57.752  16.1364  8.264688
  12238.499  12238.490  0.500  1.267431  57.4645  16.1794  8.308388
  12249.076  12249.050  0.500  1.257172  57.4574  16.3442  8.424919
  12259.803  12259.780  0.500  1.252713  57.3115  16.3755  8.455232
  12270.700  12270.680  0.500  1.249937  57.0215  16.338  8.445098
  12281.768  12281.750  0.500  1.246394  57.0177  16.3948  8.487756
  12293.000  12292.990  0.500  1.245109  56.5782  16.2894  8.437688
  12304.399  12304.410  0.500  1.244370  56.8789  16.3881  8.490727
  12315.998  12315.990  0.500  1.241889  56.7273  16.385  8.499320
  12327.790  12327.750  0.500  1.235607  56.5464  16.4357  8.544173
  12339.719  12339.680  0.500  1.227127  56.4221  16.5392  8.626598
  12351.790  12351.780  0.500  1.222202  56.2566  16.5721  8.660180
  12364.052  12364.050  0.500  1.220043  56.0479  16.5463  8.654271
  12376.512  12376.490  0.500  1.218093  55.9584  16.5522  8.664219
  12389.132  12389.110  0.500  1.215281  55.8129  16.5556  8.676970
  12401.898  12401.890  0.500  1.211531  55.6463  16.5682  8.695679
  12414.865  12414.850  0.500  1.205977  55.4737  16.6088  8.734872
  12428.015  12427.980  0.500  1.200018  55.3042  16.657  8.781937
  12441.307  12441.280  0.500  1.193813  55.1562  16.7158  8.832644
  12454.784  12454.750  0.500  1.188822  54.9066  16.7235  8.850864
  12468.453  12468.400  0.500  1.185475  54.7608  16.735  8.871276
  12482.261  12482.210  0.500  1.182423  54.6047  16.7382  8.882944
  12496.223  12496.200  0.500  1.178809  54.4551  16.7528  8.904817
  12510.386  12510.360  0.500  1.174109  54.2672  16.7737  8.931843
  12524.733  12524.690  0.500  1.168135  54.0799  16.8159  8.974946
  12539.216  12539.190  0.500  1.162234  53.8386  16.84  9.009877
  12553.884  12553.860  0.500  1.156479  53.7179  16.8992  9.060395
  12568.724  12568.700  0.500  1.151008  53.5239  16.9306  9.093229
  12583.773  12583.720  0.500  1.147014  53.3333  16.9378  9.112700
  12598.941  12598.900  0.500  1.143398  53.1376  16.9368  9.126048
  12614.278  12614.260  0.500  1.138851  52.9363  16.9495  9.149869
  12629.834  12629.790  0.500  1.133044  52.7086  16.9749  9.182809
  12645.554  12645.490  0.500  1.127117  52.5489  17.0241  9.230547
  12661.390  12661.360  0.500  1.121222  52.3469  17.0589  9.269832
  12677.456  12677.410  0.500  1.115556  52.1509  17.0916  9.307632
  12693.669  12693.620  0.500  1.110267  51.9432  17.1138  9.339511
  12710.043  12710.010  0.500  1.105173  51.7346  17.1321  9.366789
  12726.623  12726.570  0.500  1.100381  51.5207  17.1432  9.390081
  12743.366  12743.300  0.500  1.095230  51.3127  17.1622  9.418893
  12760.219  12760.200  0.500  1.089521  51.1028  17.1898  9.453454
  12771.595  12771.560  0.500  1.085510  50.9658  17.2127  9.482233