File: xdidata/Au/Au-L1-GoldThiocyanate.xdi
# XDI/1.0 BlueSky/1.10.0 BMM/2023-1.0-py310-tiled
# Beamline.name: BMM (06BM) -- Beamline for Materials Measurement (NIST)
# Beamline.xray_source: NSLS-II three-pole wiggler
# Beamline.collimation: paraboloid mirror, 5 nm Rh on 30 nm Pt
# Beamline.focusing: not in use
# Beamline.harmonic_rejection: flat mirror, Pt stripe, pitch = 7.0 mrad relative to beam
# Beamline.software: Bluesky 1.10.0, Ophyd 1.7.0, DataBroker 2.0.0b13, Python 3.10.8, 2023-1.0-py310-tiled
# Detector.I0: 10 cm N2
# Detector.I1: 25 cm N2
# Detector.I2: 25 cm N2
# Element.symbol: Au
# Element.edge: L1
# Element.reference: Au
# Element.reference_material: Au foil
# Facility.name: NSLS-II
# Facility.energy: 3.0
# Facility.current: 399.1
# Facility.mode: top-off
# Facility.GUP: 301027
# Facility.SAF: 310583
# Facility.cycle: 2023-2
# Mono.name: Si(111)
# Mono.d_spacing: 3.13519
# Mono.encoder_resolution: 0.0000050 deg/ct
# Mono.angle_offset: 16.0754 deg
# Mono.scan_mode: pseudo channel cut
# Mono.scan_type: step
# Mono.direction: forward in energy
# Sample.name: KAu(SCN)4, gold potassium thocyanate
# Sample.prep: powder in BN pellet
# Sample.x: 145.711 mm
# Sample.y: 114.376 mm
# Sample.SDD_position: 205.000 mm
# Scan.experimenters: Bruce Ravel
# Scan.edge_energy: 14352.8
# Scan.start_time: 2023-06-27T20:02:36
# Scan.end_time: 2023-06-27T20:10:37
# Scan.transient_id: 85283
# Scan.uid: e065face-919d-4a45-a7b7-5ae4953fe51c
# Scan.plot_hint: ln(I0/It)  --  ln($5/$6)
# Column.1: energy eV
# Column.2: requested_energy eV
# Column.3: measurement_time seconds
# Column.4: xmu
# Column.5: I0 nA
# Column.6: It nA
# Column.7: Ir nA
# ///////////
# Welcome to BMM
# -----------
# energy  requested_energy  measurement_time  xmu  I0  It  Ir
  14152.852  14152.800  0.500  1.340899  34.5656  9.042736  5.110273
  14182.906  14182.800  0.500  1.331086  34.474  9.107694  5.159085
  14212.913  14212.800  0.500  1.322898  34.2217  9.115369  5.176279
  14242.852  14242.800  0.500  1.314493  33.9761  9.126321  5.199375
  14272.786  14272.800  0.500  1.306396  31.8917  8.636095  4.935999
  14302.812  14302.800  0.500  1.297875  33.6262  9.183705  5.255044
  14324.771  14324.800  0.500  1.294225  33.5016  9.183126  5.259773
  14330.766  14330.800  0.500  1.293925  33.4412  9.169329  5.251128
  14336.765  14336.800  0.500  1.294798  33.3996  9.149918  5.239067
  14342.760  14342.800  0.500  1.297184  33.3521  9.115124  5.212979
  14343.632  14343.700  0.500  1.297837  33.3289  9.102843  5.204583
  14344.550  14344.600  0.500  1.298542  33.3075  9.090598  5.196347
  14345.449  14345.500  0.500  1.299460  33.3103  9.083031  5.189974
  14346.358  14346.400  0.500  1.300463  33.3147  9.075102  5.182494
  14347.276  14347.300  0.500  1.301646  33.3125  9.063787  5.172619
  14348.167  14348.200  0.500  1.303210  33.3207  9.051849  5.162785
  14349.076  14349.100  0.500  1.305072  33.3091  9.031867  5.148633
  14349.967  14350.000  0.500  1.306839  33.286  9.009659  5.130970
  14350.867  14350.900  0.500  1.309224  33.2811  8.986885  5.112841
  14351.767  14351.800  0.500  1.311974  33.2816  8.962342  5.092185
  14352.686  14352.700  0.500  1.315325  33.2765  8.930971  5.066750
  14353.586  14353.600  0.500  1.319432  33.263  8.890763  5.034894
  14354.505  14354.500  0.500  1.324312  33.2594  8.846537  4.999413
  14355.406  14355.400  0.500  1.329878  33.2433  8.793175  4.957488
  14356.316  14356.300  0.500  1.336271  33.237  8.735482  4.912719
  14357.190  14357.200  0.500  1.343376  33.2306  8.671972  4.862097
  14358.082  14358.100  0.500  1.351109  33.1833  8.592911  4.803914
  14358.956  14359.000  0.500  1.359016  33.129  8.511288  4.744121
  14359.893  14359.900  0.500  1.367369  33.1099  8.435630  4.689103
  14360.804  14360.800  0.500  1.375979  33.1386  8.370556  4.638900
  14361.687  14361.700  0.500  1.383852  33.177  8.314531  4.595237
  14362.580  14362.600  0.500  1.391591  33.1751  8.249950  4.544377
  14363.518  14363.500  0.500  1.398757  33.177  8.191519  4.499799
  14364.411  14364.400  0.500  1.405253  33.1654  8.135651  4.456944
  14365.313  14365.300  0.500  1.410738  33.1486  8.087033  4.417258
  14366.179  14366.200  0.500  1.415510  33.1437  8.047351  4.385213
  14367.081  14367.100  0.500  1.419677  33.1057  8.004696  4.352464
  14367.992  14368.000  0.500  1.423120  33.0688  7.968299  4.327348
  14368.895  14368.900  0.500  1.425786  33.0645  7.946048  4.310832
  14369.779  14369.800  0.500  1.427399  33.0763  7.936056  4.300899
  14370.691  14370.700  0.500  1.428962  33.0899  7.926940  4.296273
  14371.603  14371.600  0.500  1.429911  33.094  7.920400  4.295023
  14372.515  14372.500  0.500  1.430686  33.0972  7.915024  4.293571
  14373.409  14373.400  0.500  1.430926  33.0757  7.907984  4.291062
  14374.312  14374.300  0.500  1.431331  33.0681  7.902960  4.292308
  14375.198  14375.200  0.500  1.431645  33.0486  7.895826  4.292744
  14376.092  14376.100  0.500  1.431387  33.0133  7.889433  4.291617
  14376.968  14377.000  0.500  1.431365  32.9853  7.882920  4.292182
  14377.782  14377.800  0.500  1.431431  32.9887  7.883198  4.296608
  14380.846  14380.810  0.500  1.430709  33.0131  7.894728  4.310843
  14383.992  14384.000  0.500  1.430914  32.9882  7.887155  4.307421
  14387.367  14387.360  0.500  1.431566  32.9232  7.866484  4.285167
  14390.906  14390.880  0.500  1.431894  32.9537  7.871191  4.273684
  14394.574  14394.580  0.500  1.429414  32.923  7.883391  4.275254
  14398.479  14398.450  0.500  1.423972  32.8789  7.915786  4.300421
  14402.477  14402.500  0.500  1.418501  32.8514  7.952567  4.336263
  14406.685  14406.710  0.500  1.415936  32.816  7.964394  4.348473
  14411.069  14411.090  0.500  1.415583  32.7062  7.940547  4.336218
  14415.637  14415.650  0.500  1.416049  32.7415  7.945409  4.338829
  14420.363  14420.380  0.500  1.416065  32.7065  7.936778  4.331060
  14425.183  14425.280  0.500  1.416891  32.7714  7.945982  4.334343
  14430.397  14430.350  0.500  1.418391  32.7368  7.925694  4.320271
  14435.561  14435.590  0.500  1.419044  32.669  7.904106  4.311160
  14441.029  14441.010  0.500  1.416952  32.6737  7.921788  4.329261
  14446.593  14446.590  0.500  1.412343  32.4928  7.914326  4.333283
  14452.353  14452.350  0.500  1.407587  32.5956  7.977224  4.371716
  14458.300  14458.280  0.500  1.403499  32.5449  7.997448  4.382639
  14464.389  14464.380  0.500  1.400272  32.5023  8.012796  4.393621
  14470.630  14470.650  0.500  1.397668  32.4544  8.021840  4.403334
  14477.087  14477.090  0.500  1.395613  32.406  8.026362  4.408769
  14483.715  14483.700  0.500  1.394764  32.3452  8.018088  4.405469
  14490.496  14490.490  0.500  1.394211  32.3145  8.014917  4.403440
  14497.468  14497.450  0.500  1.394159  32.2608  8.002032  4.400186
  14504.584  14504.570  0.500  1.393266  32.2113  7.996886  4.401094
  14511.872  14511.870  0.500  1.391004  32.1695  8.004585  4.411364
  14519.362  14519.350  0.500  1.387442  32.1175  8.020160  4.423337
  14526.998  14526.990  0.500  1.383754  32.0528  8.033593  4.434057
  14534.818  14534.800  0.500  1.380129  31.9949  8.048185  4.447387
  14542.775  14542.790  0.500  1.377140  31.9487  8.060619  4.457522
  14550.945  14550.950  0.500  1.374673  31.8457  8.054480  4.453916
  14559.273  14559.270  0.500  1.372128  31.8279  8.070496  4.464168
  14567.768  14567.770  0.500  1.370076  31.7709  8.072593  4.468085
  14576.468  14576.450  0.500  1.367961  31.7089  8.073900  4.474354
  14585.300  14585.290  0.500  1.365684  31.6452  8.076053  4.483969
  14594.300  14594.300  0.500  1.362655  31.5768  8.083039  4.493819
  14603.527  14603.490  0.500  1.359820  31.5162  8.090433  4.502462
  14612.849  14612.850  0.500  1.356728  31.4518  8.098898  4.509774
  14622.370  14622.370  0.500  1.353634  31.3871  8.107285  4.517504
  14632.091  14632.070  0.500  1.350231  31.3197  8.117444  4.526948
  14641.956  14641.950  0.500  1.346692  31.2473  8.127401  4.536219
  14651.985  14651.990  0.500  1.343135  31.1844  8.139951  4.548585
  14662.225  14662.200  0.500  1.339466  31.1034  8.148648  4.561166
  14672.631  14672.590  0.500  1.336265  31.0467  8.159852  4.572476
  14683.154  14683.150  0.500  1.333494  30.9514  8.157380  4.575226
  14693.882  14693.880  0.500  1.331008  30.893  8.162260  4.582011
  14704.806  14704.780  0.500  1.328028  30.8092  8.164417  4.587042
  14715.888  14715.850  0.500  1.324570  30.7523  8.177579  4.599873
  14727.091  14727.090  0.500  1.321017  30.6689  8.184429  4.607741
  14738.511  14738.510  0.500  1.317120  30.4761  8.164727  4.602495
  14750.149  14750.090  0.500  1.313002  30.5112  8.207860  4.633052
  14761.881  14761.850  0.500  1.308992  30.4318  8.219396  4.646491
  14773.804  14773.780  0.500  1.305406  30.3587  8.229105  4.658283
  14785.881  14785.880  0.500  1.301839  30.2611  8.231958  4.662968
  14798.159  14798.150  0.500  1.298719  30.1943  8.239457  4.673308
  14810.602  14810.590  0.500  1.295265  30.1087  8.244519  4.680014
  14823.239  14823.210  0.500  1.291519  30.0263  8.252813  4.692381
  14836.042  14835.990  0.500  1.287658  29.9054  8.251393  4.697912
  14849.003  14848.950  0.500  1.283613  29.8428  8.267480  4.713974
  14862.112  14862.080  0.500  1.279781  29.7314  8.268245  4.720707
  14875.409  14875.380  0.500  1.275411  29.6796  8.289990  4.738040
  14888.865  14888.850  0.500  1.271548  29.5874  8.296223  4.746175
  14902.541  14902.500  0.500  1.267238  29.497  8.306602  4.757205
  14916.330  14916.310  0.500  1.263226  29.4141  8.316567  4.771051
  14930.349  14930.300  0.500  1.259312  29.3275  8.324593  4.781924
  14944.502  14944.460  0.500  1.255027  29.3372  8.363099  4.810397
  14958.829  14958.790  0.500  1.250886  29.2414  8.370385  4.821710
  14973.331  14973.290  0.500  1.246820  29.1088  8.366373  4.825664
  14987.989  14987.960  0.500  1.242635  29.0418  8.382116  4.842105
  15002.814  15002.800  0.500  1.238319  28.9628  8.395471  4.855856
  15017.837  15017.820  0.500  1.233876  28.8582  8.402416  4.866699
  15033.018  15033.000  0.500  1.229552  28.7651  8.411604  4.878451
  15048.389  15048.360  0.500  1.225122  28.6706  8.421176  4.892093
  15063.881  15063.890  0.500  1.220466  28.569  8.430506  4.904177
  15079.614  15079.590  0.500  1.216105  28.4666  8.436990  4.915937
  15095.460  15095.460  0.500  1.211639  28.3671  8.445125  4.927501
  15111.539  15111.510  0.500  1.207002  28.268  8.454741  4.939787
  15127.763  15127.720  0.500  1.202760  28.1653  8.459847  4.951121
  15144.143  15144.110  0.500  1.198086  28.0585  8.467241  4.962066
  15160.709  15160.670  0.500  1.193591  27.8971  8.456460  4.962170
  15177.443  15177.400  0.500  1.188596  27.8487  8.484084  4.985916
  15194.366  15194.300  0.500  1.184008  27.7455  8.491504  4.998690
  15205.680  15205.660  0.500  1.180756  27.6743  8.497303  5.006420