File: xdidata/Au/Au-L3-GoldThiomalate.xdi
# XDI/1.0 BlueSky/1.10.0 BMM/2023-1.0-py310-tiled
# Beamline.name: BMM (06BM) -- Beamline for Materials Measurement (NIST)
# Beamline.xray_source: NSLS-II three-pole wiggler
# Beamline.collimation: paraboloid mirror, 5 nm Rh on 30 nm Pt
# Beamline.focusing: not in use
# Beamline.harmonic_rejection: flat mirror, Pt stripe, pitch = 7.0 mrad relative to beam
# Beamline.software: Bluesky 1.10.0, Ophyd 1.7.0, DataBroker 2.0.0b13, Python 3.10.8, 2023-1.0-py310-tiled
# Detector.I0: 10 cm N2
# Detector.I1: 25 cm N2
# Detector.I2: 25 cm N2
# Element.symbol: Au
# Element.edge: L3
# Element.reference: Au
# Element.reference_material: Au foil
# Facility.name: NSLS-II
# Facility.energy: 3.0
# Facility.current: 399.9
# Facility.mode: top-off
# Facility.GUP: 301027
# Facility.SAF: 310583
# Facility.cycle: 2023-2
# Mono.name: Si(111)
# Mono.d_spacing: 3.13519
# Mono.encoder_resolution: 0.0000050 deg/ct
# Mono.angle_offset: 16.0754 deg
# Mono.scan_mode: pseudo channel cut
# Mono.scan_type: step
# Mono.direction: forward in energy
# Sample.name: C4H3AuNa2O4S, gold thiomalate
# Sample.prep: powder in BN pellet
# Sample.x: 145.711 mm
# Sample.y: 114.376 mm
# Sample.SDD_position: 205.000 mm
# Scan.experimenters: Bruce Ravel
# Scan.edge_energy: 11918.7
# Scan.start_time: 2023-06-27T17:58:55
# Scan.end_time: 2023-06-27T18:06:44
# Scan.transient_id: 85207
# Scan.uid: 70e42fbc-7773-44d1-b20a-9d1a595e210e
# Scan.plot_hint: ln(I0/It)  --  ln($5/$6)
# Column.1: energy eV
# Column.2: requested_energy eV
# Column.3: measurement_time seconds
# Column.4: xmu
# Column.5: I0 nA
# Column.6: It nA
# Column.7: Ir nA
# ///////////
# Welcome to BMM
# -----------
# energy  requested_energy  measurement_time  xmu  I0  It  Ir
  11718.678  11718.700  0.500  0.657696  64.5302  33.4294  21.2645
  11748.734  11748.700  0.500  0.648174  64.0362  33.4909  21.3776
  11778.770  11778.700  0.500  0.638846  63.5271  33.5361  21.4773
  11808.782  11808.700  0.500  0.629613  63.2892  33.7204  21.6603
  11838.735  11838.700  0.500  0.621091  62.9249  33.8132  21.7834
  11868.732  11868.700  0.500  0.613994  62.5171  33.8333  21.8449
  11890.676  11890.700  0.500  0.612691  62.2008  33.7061  21.7647
  11896.666  11896.700  0.500  0.614299  62.121  33.6087  21.6853
  11902.663  11902.700  0.500  0.618206  61.3866  33.0819  21.3038
  11908.683  11908.700  0.500  0.627836  61.9806  33.0818  21.2128
  11909.541  11909.600  0.500  0.630155  61.9684  32.9987  21.1375
  11910.443  11910.500  0.500  0.632921  61.9441  32.8947  21.0433
  11911.350  11911.400  0.500  0.636308  62.1182  32.8756  21.0011
  11912.270  11912.300  0.500  0.640200  62.1009  32.7388  20.8744
  11913.172  11913.200  0.500  0.644590  62.0877  32.5884  20.7328
  11914.086  11914.100  0.500  0.650454  62.0663  32.3867  20.55
  11915.001  11915.000  0.500  0.657411  62.0321  32.1445  20.3199
  11915.891  11915.900  0.500  0.666433  61.9317  31.8043  20.0188
  11916.793  11916.800  0.500  0.677679  61.5867  31.2734  19.5705
  11917.664  11917.700  0.500  0.691916  61.334  30.7048  19.0652
  11918.592  11918.600  0.500  0.711541  61.5595  30.2188  18.5626
  11919.482  11919.500  0.500  0.738049  61.8653  29.5744  17.9003
  11920.391  11920.400  0.500  0.775779  61.9572  28.5217  16.9126
  11921.300  11921.300  0.500  0.828659  61.9649  27.056  15.6317
  11922.203  11922.200  0.500  0.900275  61.9484  25.1794  14.1353
  11923.094  11923.100  0.500  0.981151  61.9351  23.2182  12.7117
  11923.992  11924.000  0.500  1.054811  61.9304  21.5678  11.5894
  11924.883  11924.900  0.500  1.102980  61.9161  20.5488  10.9095
  11925.786  11925.800  0.500  1.123746  61.9071  20.1235  10.6116
  11926.709  11926.700  0.500  1.127705  61.8927  20.0393  10.5396
  11927.607  11927.600  0.500  1.127591  61.8685  20.0338  10.5331
  11928.492  11928.500  0.500  1.130704  61.8575  19.968  10.4994
  11929.396  11929.400  0.500  1.138998  61.8356  19.796  10.4021
  11930.288  11930.300  0.500  1.150381  61.8258  19.5689  10.2588
  11931.180  11931.200  0.500  1.162463  61.8114  19.3294  10.0988
  11932.097  11932.100  0.500  1.172777  61.7794  19.1211  9.945146
  11933.002  11933.000  0.500  1.179293  61.7562  18.9898  9.829737
  11933.901  11933.900  0.500  1.182768  61.6319  18.8858  9.734494
  11934.806  11934.800  0.500  1.184199  61.2064  18.7286  9.620917
  11935.699  11935.700  0.500  1.184563  61.0689  18.6797  9.572827
  11936.598  11936.600  0.500  1.184781  61.3319  18.7561  9.598320
  11937.485  11937.500  0.500  1.185428  61.6076  18.8282  9.627549
  11938.415  11938.400  0.500  1.186395  61.6583  18.8255  9.616371
  11939.302  11939.300  0.500  1.188253  61.6561  18.7899  9.589260
  11940.208  11940.200  0.500  1.191009  61.657  18.7385  9.544912
  11941.108  11941.100  0.500  1.194382  61.6387  18.6698  9.492809
  11942.002  11942.000  0.500  1.198192  61.6223  18.5939  9.441253
  11942.890  11942.900  0.500  1.202427  61.6179  18.514  9.382713
  11943.691  11943.700  0.500  1.206243  61.6111  18.4414  9.320107
  11946.746  11946.710  0.500  1.221132  61.5614  18.1542  8.954496
  11949.909  11949.900  0.500  1.233515  61.5116  17.9163  8.763302
  11953.279  11953.260  0.500  1.244179  61.4666  17.7133  8.817994
  11956.781  11956.780  0.500  1.252752  61.4149  17.5473  8.783739
  11960.503  11960.480  0.500  1.259924  61.3625  17.4071  8.748600
  11964.347  11964.350  0.500  1.265688  61.3066  17.2912  8.635471
  11968.417  11968.400  0.500  1.269055  61.2458  17.216  8.482735
  11972.608  11972.610  0.500  1.270181  61.185  17.1796  8.417393
  11976.984  11976.990  0.500  1.267410  61.1226  17.2097  8.496021
  11981.556  11981.550  0.500  1.258113  61.0589  17.3523  8.621387
  11986.276  11986.280  0.500  1.244240  60.986  17.5737  8.766979
  11991.143  11991.180  0.500  1.231542  60.9228  17.7798  8.925213
  11996.240  11996.250  0.500  1.224151  60.8467  17.8894  8.999740
  12001.611  12001.490  0.500  1.222134  60.7761  17.9047  8.980433
  12007.019  12006.910  0.500  1.223252  60.6839  17.8576  8.897497
  12012.525  12012.490  0.500  1.225642  60.6068  17.7923  8.851923
  12018.257  12018.250  0.500  1.229475  60.5343  17.703  8.839212
  12024.202  12024.180  0.500  1.233588  60.4542  17.607  8.812861
  12030.285  12030.280  0.500  1.237181  60.3719  17.52  8.774902
  12036.576  12036.550  0.500  1.236539  60.4862  17.5644  8.808501
  12042.982  12042.990  0.500  1.229504  60.3786  17.657  8.888586
  12049.622  12049.600  0.500  1.219114  59.3774  17.5455  8.859642
  12056.389  12056.390  0.500  1.211685  60.1828  17.9161  9.046033
  12063.373  12063.350  0.500  1.207599  60.1  17.9647  9.051490
  12070.461  12070.470  0.500  1.205500  60.0032  17.9735  9.047412
  12077.779  12077.770  0.500  1.204191  59.9065  17.968  9.041824
  12085.278  12085.250  0.500  1.203951  59.796  17.9392  9.037430
  12092.895  12092.890  0.500  1.205160  59.5177  17.8341  8.982637
  12100.725  12100.700  0.500  1.207359  59.5998  17.8195  8.988385
  12108.700  12108.690  0.500  1.208541  59.492  17.7662  9.002677
  12116.839  12116.850  0.500  1.206177  59.3822  17.7754  9.026185
  12125.155  12125.170  0.500  1.201271  59.2708  17.8294  9.062583
  12133.676  12133.670  0.500  1.195506  59.176  17.9037  9.098568
  12142.362  12142.350  0.500  1.189939  59.0565  17.9673  9.111397
  12151.216  12151.190  0.500  1.185154  58.931  18.0152  9.121600
  12160.224  12160.200  0.500  1.181347  58.7974  18.0429  9.152753
  12169.426  12169.390  0.500  1.178607  58.6908  18.0596  9.201571
  12178.779  12178.750  0.500  1.177146  58.5557  18.0443  9.227053
  12188.294  12188.270  0.500  1.176104  58.4186  18.0209  9.218519
  12197.987  12197.970  0.500  1.174899  58.2855  18.0015  9.218935
  12207.877  12207.850  0.500  1.172228  58.1678  18.0132  9.231124
  12217.919  12217.890  0.500  1.168142  58.0304  18.0442  9.239664
  12228.116  12228.100  0.500  1.163186  57.9014  18.0936  9.264154
  12238.505  12238.490  0.500  1.158004  57.614  18.0973  9.292030
  12249.076  12249.050  0.500  1.153030  57.6008  18.1833  9.369560
  12259.803  12259.780  0.500  1.148438  57.449  18.2189  9.404327
  12270.700  12270.680  0.500  1.144381  57.1557  18.1996  9.404591
  12281.761  12281.750  0.500  1.140925  57.1505  18.2609  9.449308
  12293.000  12292.990  0.500  1.137949  56.531  18.1168  9.379688
  12304.419  12304.410  0.500  1.135104  56.823  18.2623  9.459827
  12315.991  12315.990  0.500  1.132030  56.6643  18.2673  9.471457
  12327.770  12327.750  0.500  1.128251  56.4771  18.2759  9.500259
  12339.705  12339.680  0.500  1.123667  56.3432  18.3163  9.550075
  12351.777  12351.780  0.500  1.118708  56.1778  18.3534  9.587096
  12364.065  12364.050  0.500  1.113734  55.9625  18.3742  9.607487
  12376.526  12376.490  0.500  1.108645  55.8766  18.4396  9.648756
  12389.118  12389.110  0.500  1.104004  55.727  18.4758  9.679974
  12401.911  12401.890  0.500  1.099416  55.5463  18.5006  9.706887
  12414.878  12414.850  0.500  1.095480  55.3731  18.5156  9.735398
  12428.021  12427.980  0.500  1.091404  55.194  18.5311  9.767107
  12441.314  12441.280  0.500  1.087211  55.047  18.5594  9.802323
  12454.764  12454.750  0.500  1.082626  54.7971  18.56  9.822234
  12468.446  12468.400  0.500  1.077926  54.6518  18.598  9.857314
  12482.247  12482.210  0.500  1.072593  54.4866  18.641  9.890863
  12496.229  12496.200  0.500  1.067257  54.3391  18.69  9.931546
  12510.400  12510.360  0.500  1.062016  54.1513  18.7232  9.968315
  12524.719  12524.690  0.500  1.056879  53.9635  18.7544  10.0069
  12539.264  12539.190  0.500  1.051842  53.7092  18.7603  10.0338
  12553.884  12553.860  0.500  1.047026  53.5957  18.811  10.0819
  12568.738  12568.700  0.500  1.042122  53.4027  18.8354  10.1152
  12583.745  12583.720  0.500  1.037187  53.2066  18.8591  10.1434
  12598.948  12598.900  0.500  1.032120  53.0133  18.886  10.1741
  12614.320  12614.260  0.500  1.026939  52.8201  18.915  10.2069
  12629.820  12629.790  0.500  1.021463  52.598  18.9388  10.2408
  12645.547  12645.490  0.500  1.015786  52.4308  18.9861  10.292
  12661.397  12661.360  0.500  1.010272  52.2344  19.0196  10.3312
  12677.435  12677.410  0.500  1.004745  52.0321  19.0509  10.3732
  12693.647  12693.620  0.500  0.999129  51.8268  19.0826  10.4116
  12710.057  12710.010  0.500  0.993585  51.6174  19.1112  10.4475
  12726.601  12726.570  0.500  0.988157  51.4778  19.1632  10.4945
  12743.338  12743.300  0.500  0.982753  51.3034  19.2018  10.5351
  12760.261  12760.200  0.500  0.977087  51.0891  19.2303  10.5733
  12771.609  12771.560  0.500  0.973398  50.9547  19.2505  10.6013