File: xdidata/Au/Au-L1-GoldThiosulfate.xdi
# XDI/1.0 BlueSky/1.10.0 BMM/2023-1.0-py310-tiled
# Beamline.name: BMM (06BM) -- Beamline for Materials Measurement (NIST)
# Beamline.xray_source: NSLS-II three-pole wiggler
# Beamline.collimation: paraboloid mirror, 5 nm Rh on 30 nm Pt
# Beamline.focusing: not in use
# Beamline.harmonic_rejection: flat mirror, Pt stripe, pitch = 7.0 mrad relative to beam
# Beamline.software: Bluesky 1.10.0, Ophyd 1.7.0, DataBroker 2.0.0b13, Python 3.10.8, 2023-1.0-py310-tiled
# Detector.I0: 10 cm N2
# Detector.I1: 25 cm N2
# Detector.I2: 25 cm N2
# Element.symbol: Au
# Element.edge: L1
# Element.reference: Au
# Element.reference_material: Au foil
# Facility.name: NSLS-II
# Facility.energy: 3.0
# Facility.current: 399.2
# Facility.mode: top-off
# Facility.GUP: 301027
# Facility.SAF: 310583
# Facility.cycle: 2023-2
# Mono.name: Si(111)
# Mono.d_spacing: 3.13519
# Mono.encoder_resolution: 0.0000050 deg/ct
# Mono.angle_offset: 16.0754 deg
# Mono.scan_mode: pseudo channel cut
# Mono.scan_type: step
# Mono.direction: forward in energy
# Sample.name: AuH2Na3O6S4+, gold thiosulfate
# Sample.prep: powder in BN pellet
# Sample.x: 145.711 mm
# Sample.y: 114.376 mm
# Sample.SDD_position: 205.000 mm
# Scan.experimenters: Bruce Ravel
# Scan.edge_energy: 14352.8
# Scan.start_time: 2023-06-27T20:19:36
# Scan.end_time: 2023-06-27T20:27:27
# Scan.transient_id: 85293
# Scan.uid: 289ddec2-cfc7-4133-a3b1-768e51580132
# Scan.plot_hint: ln(I0/It)  --  ln($5/$6)
# Column.1: energy eV
# Column.2: requested_energy eV
# Column.3: measurement_time seconds
# Column.4: xmu
# Column.5: I0 nA
# Column.6: It nA
# Column.7: Ir nA
# ///////////
# Welcome to BMM
# -----------
# energy  requested_energy  measurement_time  xmu  I0  It  Ir
  14152.739  14152.800  0.500  1.061696  34.5072  11.935  6.743869
  14182.845  14182.800  0.500  1.052804  34.508  12.0418  6.820533
  14212.877  14212.800  0.500  1.044076  34.2661  12.0622  6.848843
  14242.826  14242.800  0.500  1.036760  34.0288  12.0667  6.872878
  14272.867  14272.800  0.500  1.030804  31.9896  11.4113  6.516960
  14302.866  14302.800  0.500  1.023816  33.5715  12.0596  6.900971
  14324.816  14324.800  0.500  1.020799  33.4453  12.0506  6.900088
  14330.783  14330.800  0.500  1.020872  33.3899  12.0297  6.888148
  14336.810  14336.800  0.500  1.021956  33.3631  12.0071  6.873494
  14342.787  14342.800  0.500  1.025080  33.3171  11.9531  6.834705
  14343.668  14343.700  0.500  1.025750  33.2807  11.932  6.822288
  14344.550  14344.600  0.500  1.026673  33.261  11.914  6.808951
  14345.476  14345.500  0.500  1.027751  33.2708  11.9046  6.800620
  14346.376  14346.400  0.500  1.029146  33.2683  11.8872  6.787078
  14347.267  14347.300  0.500  1.030577  33.2759  11.8729  6.775373
  14348.176  14348.200  0.500  1.032392  33.2666  11.848  6.756155
  14349.076  14349.100  0.500  1.034595  33.2553  11.818  6.735163
  14349.976  14350.000  0.500  1.037161  33.253  11.7869  6.712832
  14350.885  14350.900  0.500  1.040027  33.2396  11.7484  6.680571
  14351.785  14351.800  0.500  1.043855  33.2394  11.7034  6.649160
  14352.695  14352.700  0.500  1.048052  33.2247  11.6492  6.606824
  14353.604  14353.600  0.500  1.053520  33.2176  11.5833  6.557856
  14354.514  14354.500  0.500  1.059900  33.2064  11.5057  6.499469
  14355.388  14355.400  0.500  1.067119  33.2023  11.4215  6.437759
  14356.271  14356.300  0.500  1.075397  33.1936  11.3244  6.366907
  14357.172  14357.200  0.500  1.084249  33.1792  11.2197  6.288461
  14358.100  14358.100  0.500  1.093346  33.141  11.1053  6.206725
  14358.992  14359.000  0.500  1.101023  33.0927  11.0043  6.131372
  14359.911  14359.900  0.500  1.108034  33.0778  10.9226  6.068822
  14360.804  14360.800  0.500  1.113723  33.1152  10.8728  6.021520
  14361.714  14361.700  0.500  1.118293  33.1336  10.8293  5.980270
  14362.589  14362.600  0.500  1.122772  33.1387  10.7825  5.937241
  14363.491  14363.500  0.500  1.126580  33.1364  10.7408  5.896105
  14364.402  14364.400  0.500  1.130648  33.1177  10.6912  5.852515
  14365.268  14365.300  0.500  1.134262  33.1174  10.6525  5.815748
  14366.197  14366.200  0.500  1.137481  33.0942  10.6109  5.777704
  14367.117  14367.100  0.500  1.140170  33.0632  10.5724  5.746901
  14368.001  14368.000  0.500  1.142015  33.0301  10.5424  5.722774
  14368.913  14368.900  0.500  1.143573  33.0208  10.523  5.707723
  14369.807  14369.800  0.500  1.144409  33.0404  10.5205  5.703433
  14370.700  14370.700  0.500  1.144826  33.0566  10.5212  5.702530
  14371.576  14371.600  0.500  1.145247  33.0519  10.5153  5.700094
  14372.488  14372.500  0.500  1.145385  33.0454  10.5118  5.700872
  14373.391  14373.400  0.500  1.145472  33.0372  10.5083  5.701403
  14374.294  14374.300  0.500  1.145496  33.0201  10.5026  5.703113
  14375.198  14375.200  0.500  1.145719  33.0171  10.4993  5.706060
  14376.110  14376.100  0.500  1.146000  32.9726  10.4822  5.702524
  14377.032  14377.000  0.500  1.146443  32.94  10.4672  5.700432
  14377.809  14377.800  0.500  1.146761  32.9547  10.4685  5.705059
  14380.819  14380.810  0.500  1.148172  32.9744  10.46  5.712695
  14384.020  14384.000  0.500  1.149238  32.9444  10.4394  5.698465
  14387.376  14387.360  0.500  1.149915  32.8884  10.4146  5.670029
  14390.906  14390.880  0.500  1.150073  32.9052  10.4183  5.655627
  14394.610  14394.580  0.500  1.147801  32.8904  10.4372  5.659934
  14398.460  14398.450  0.500  1.143378  32.8438  10.4686  5.687687
  14402.522  14402.500  0.500  1.138943  32.8109  10.5047  5.726823
  14406.704  14406.710  0.500  1.136659  32.7833  10.5198  5.742179
  14411.105  14411.090  0.500  1.136025  32.654  10.485  5.724717
  14415.656  14415.650  0.500  1.136280  32.8108  10.5326  5.750375
  14420.399  14420.380  0.500  1.135929  32.775  10.5248  5.743006
  14425.274  14425.280  0.500  1.135026  32.7309  10.5202  5.737097
  14430.370  14430.350  0.500  1.134491  32.7076  10.5183  5.733251
  14435.588  14435.590  0.500  1.134681  32.6497  10.4977  5.725993
  14441.029  14441.010  0.500  1.135326  32.6447  10.4893  5.732408
  14446.593  14446.590  0.500  1.134591  32.4753  10.4426  5.717267
  14452.389  14452.350  0.500  1.131590  32.5724  10.5052  5.754690
  14458.254  14458.280  0.500  1.127678  32.5154  10.528  5.768906
  14464.316  14464.380  0.500  1.124036  32.4699  10.5516  5.785619
  14470.639  14470.650  0.500  1.120993  32.4205  10.5676  5.800724
  14477.573  14477.090  0.500  1.118402  32.3681  10.578  5.809483
  14483.816  14483.700  0.500  1.116368  32.3025  10.578  5.809375
  14490.478  14490.490  0.500  1.115108  32.2589  10.577  5.809467
  14497.431  14497.450  0.500  1.114203  32.2277  10.5764  5.814773
  14504.556  14504.570  0.500  1.113708  32.1815  10.5664  5.816111
  14511.845  14511.870  0.500  1.112629  32.1076  10.5536  5.813926
  14519.353  14519.350  0.500  1.110846  32.0628  10.5576  5.820399
  14526.970  14526.990  0.500  1.108256  32.0162  10.5696  5.834672
  14534.809  14534.800  0.500  1.105649  31.9647  10.5802  5.847361
  14542.766  14542.790  0.500  1.102727  31.9046  10.5912  5.856641
  14550.973  14550.950  0.500  1.100052  31.8038  10.586  5.854128
  14559.273  14559.270  0.500  1.097263  31.7814  10.6081  5.867508
  14567.777  14567.770  0.500  1.094523  31.7255  10.6185  5.877946
  14576.459  14576.450  0.500  1.091998  31.6659  10.6254  5.889016
  14585.281  14585.290  0.500  1.089712  31.5993  10.6273  5.898408
  14594.282  14594.300  0.500  1.088060  31.5426  10.6257  5.908382
  14603.489  14603.490  0.500  1.086203  31.479  10.624  5.914677
  14612.821  14612.850  0.500  1.083993  31.4056  10.6227  5.915646
  14622.351  14622.370  0.500  1.081233  31.3446  10.6314  5.923177
  14632.081  14632.070  0.500  1.078255  31.2756  10.6396  5.933568
  14641.965  14641.950  0.500  1.075043  31.2019  10.6487  5.943582
  14651.994  14651.990  0.500  1.071620  31.1361  10.6627  5.956358
  14662.216  14662.200  0.500  1.068498  31.0599  10.6698  5.969733
  14672.621  14672.590  0.500  1.065407  31.0031  10.6833  5.987312
  14683.173  14683.150  0.500  1.062564  30.9082  10.6809  5.991221
  14693.920  14693.880  0.500  1.059764  30.8587  10.6937  6.002734
  14704.815  14704.780  0.500  1.056849  30.7717  10.6947  6.009405
  14715.860  14715.850  0.500  1.054335  30.7155  10.702  6.018935
  14727.091  14727.090  0.500  1.051266  30.6299  10.705  6.027833
  14738.502  14738.510  0.500  1.048313  30.4517  10.6742  6.016173
  14750.120  14750.090  0.500  1.045241  30.4849  10.7187  6.052264
  14761.872  14761.850  0.500  1.041913  30.396  10.7231  6.062463
  14773.814  14773.780  0.500  1.038494  30.3242  10.7344  6.075118
  14785.890  14785.880  0.500  1.035051  30.2402  10.7416  6.084319
  14798.159  14798.150  0.500  1.031823  30.1629  10.7488  6.095472
  14810.631  14810.590  0.500  1.028393  30.0836  10.7573  6.106362
  14823.239  14823.210  0.500  1.024916  30.001  10.7652  6.119828
  14836.023  14835.990  0.500  1.021676  29.8759  10.7551  6.121770
  14848.983  14848.950  0.500  1.018257  29.8164  10.7704  6.138965
  14862.102  14862.080  0.500  1.015151  29.7019  10.7624  6.144356
  14875.399  14875.380  0.500  1.011533  29.646  10.7811  6.161096
  14888.875  14888.850  0.500  1.007888  29.5522  10.7862  6.170381
  14902.502  14902.500  0.500  1.004150  29.5531  10.8269  6.202794
  14916.330  14916.310  0.500  1.000515  29.4637  10.8335  6.212885
  14930.319  14930.300  0.500  0.996717  29.3705  10.8403  6.227152
  14944.463  14944.460  0.500  0.993036  29.2836  10.8481  6.239839
  14958.790  14958.790  0.500  0.989374  29.1906  10.8533  6.251883
  14973.321  14973.290  0.500  0.985807  29.0523  10.8405  6.251971
  14987.970  14987.960  0.500  0.982107  28.9848  10.8554  6.269844
  15002.814  15002.800  0.500  0.978301  28.8991  10.8646  6.282913
  15017.837  15017.820  0.500  0.974590  28.8039  10.8691  6.293859
  15033.018  15033.000  0.500  0.970594  28.7036  10.8746  6.305929
  15048.369  15048.360  0.500  0.966619  28.6102  10.8824  6.319796
  15063.920  15063.890  0.500  0.962699  28.5025  10.884  6.331553
  15079.614  15079.590  0.500  0.958761  28.411  10.8918  6.345352
  15095.509  15095.460  0.500  0.954523  28.305  10.8973  6.357810
  15111.549  15111.510  0.500  0.950686  28.2081  10.9018  6.369668
  15127.773  15127.720  0.500  0.946545  28.1022  10.9059  6.379460
  15144.143  15144.110  0.500  0.942636  27.9988  10.9083  6.390968
  15160.689  15160.670  0.500  0.938536  27.8335  10.8884  6.390246
  15177.433  15177.400  0.500  0.934381  27.7872  10.9156  6.414281
  15194.336  15194.300  0.500  0.930243  27.6792  10.9183  6.425482
  15205.700  15205.660  0.500  0.927544  27.6063  10.9189  6.435200