File: xdidata/Au/Au-L1-GoldThiomalate.xdi
# XDI/1.0 BlueSky/1.10.0 BMM/2023-1.0-py310-tiled
# Beamline.name: BMM (06BM) -- Beamline for Materials Measurement (NIST)
# Beamline.xray_source: NSLS-II three-pole wiggler
# Beamline.collimation: paraboloid mirror, 5 nm Rh on 30 nm Pt
# Beamline.focusing: not in use
# Beamline.harmonic_rejection: flat mirror, Pt stripe, pitch = 7.0 mrad relative to beam
# Beamline.software: Bluesky 1.10.0, Ophyd 1.7.0, DataBroker 2.0.0b13, Python 3.10.8, 2023-1.0-py310-tiled
# Detector.I0: 10 cm N2
# Detector.I1: 25 cm N2
# Detector.I2: 25 cm N2
# Element.symbol: Au
# Element.edge: L1
# Element.reference: Au
# Element.reference_material: Au foil
# Facility.name: NSLS-II
# Facility.energy: 3.0
# Facility.current: 400.1
# Facility.mode: top-off
# Facility.GUP: 301027
# Facility.SAF: 310583
# Facility.cycle: 2023-2
# Mono.name: Si(111)
# Mono.d_spacing: 3.13519
# Mono.encoder_resolution: 0.0000050 deg/ct
# Mono.angle_offset: 16.0754 deg
# Mono.scan_mode: pseudo channel cut
# Mono.scan_type: step
# Mono.direction: forward in energy
# Sample.name: C4H3AuNa2O4S, gold thiomalate
# Sample.prep: powder in BN pellet
# Sample.x: 145.711 mm
# Sample.y: 114.376 mm
# Sample.SDD_position: 205.000 mm
# Scan.experimenters: Bruce Ravel
# Scan.edge_energy: 14352.8
# Scan.start_time: 2023-06-27T20:11:09
# Scan.end_time: 2023-06-27T20:19:05
# Scan.transient_id: 85288
# Scan.uid: c4ce8052-448e-47de-90bc-c956a638349c
# Scan.plot_hint: ln(I0/It)  --  ln($5/$6)
# Column.1: energy eV
# Column.2: requested_energy eV
# Column.3: measurement_time seconds
# Column.4: xmu
# Column.5: I0 nA
# Column.6: It nA
# Column.7: Ir nA
# ///////////
# Welcome to BMM
# -----------
# energy  requested_energy  measurement_time  xmu  I0  It  Ir
  14152.730  14152.800  0.500  0.869474  34.5215  14.4704  8.179233
  14182.871  14182.800  0.500  0.860872  34.4325  14.5578  8.247648
  14212.877  14212.800  0.500  0.853329  34.2011  14.5695  8.274050
  14242.852  14242.800  0.500  0.846631  33.954  14.5614  8.295342
  14272.884  14272.800  0.500  0.840172  31.9631  13.7964  7.882424
  14302.866  14302.800  0.500  0.834052  33.5024  14.5496  8.327827
  14324.726  14324.800  0.500  0.831413  33.3709  14.5308  8.324115
  14330.766  14330.800  0.500  0.831294  33.3184  14.5097  8.309283
  14336.747  14336.800  0.500  0.832363  33.2828  14.4787  8.288113
  14342.751  14342.800  0.500  0.835412  33.2383  14.4153  8.244334
  14343.632  14343.700  0.500  0.836032  33.2079  14.3932  8.228801
  14344.550  14344.600  0.500  0.836995  33.1855  14.3696  8.213058
  14345.449  14345.500  0.500  0.838254  33.193  14.3548  8.202491
  14346.349  14346.400  0.500  0.839302  33.195  14.3406  8.189475
  14347.258  14347.300  0.500  0.840989  33.1963  14.317  8.172127
  14348.167  14348.200  0.500  0.842520  33.1876  14.2914  8.151114
  14349.076  14349.100  0.500  0.844483  33.1795  14.2599  8.127329
  14349.967  14350.000  0.500  0.846835  33.1721  14.2232  8.100366
  14350.867  14350.900  0.500  0.849825  33.1577  14.1746  8.063324
  14351.776  14351.800  0.500  0.853109  33.1519  14.1256  8.024013
  14352.668  14352.700  0.500  0.857170  33.1462  14.066  7.978194
  14353.595  14353.600  0.500  0.862238  33.1322  13.9889  7.920058
  14354.496  14354.500  0.500  0.868379  33.1312  13.9029  7.855529
  14355.406  14355.400  0.500  0.875304  33.118  13.8014  7.779541
  14356.298  14356.300  0.500  0.882916  33.098  13.6885  7.693519
  14357.190  14357.200  0.500  0.891232  33.0907  13.5722  7.606112
  14358.091  14358.100  0.500  0.899646  33.0547  13.4438  7.513322
  14358.965  14359.000  0.500  0.907235  33.0047  13.322  7.425477
  14359.884  14359.900  0.500  0.914268  33.0914  13.2634  7.369584
  14360.804  14360.800  0.500  0.920674  33.1276  13.1931  7.309703
  14361.705  14361.700  0.500  0.926036  33.1534  13.1328  7.254499
  14362.598  14362.600  0.500  0.930961  33.1601  13.0709  7.197591
  14363.500  14363.500  0.500  0.935456  33.1496  13.0081  7.142159
  14364.420  14364.400  0.500  0.939643  33.1455  12.9522  7.092953
  14365.277  14365.300  0.500  0.942850  33.1265  12.9033  7.046823
  14366.161  14366.200  0.500  0.945710  33.1164  12.8625  7.007611
  14367.108  14367.100  0.500  0.947971  33.0869  12.822  6.972207
  14368.001  14368.000  0.500  0.949730  33.0534  12.7866  6.942474
  14368.904  14368.900  0.500  0.950664  33.0423  12.7703  6.928003
  14369.807  14369.800  0.500  0.951319  33.0542  12.7665  6.922475
  14370.718  14370.700  0.500  0.951762  33.072  12.7678  6.921981
  14371.612  14371.600  0.500  0.952118  33.0745  12.7642  6.923278
  14372.524  14372.500  0.500  0.952344  33.0701  12.7596  6.923915
  14373.382  14373.400  0.500  0.952375  33.0663  12.7577  6.924639
  14374.276  14374.300  0.500  0.952683  33.0488  12.7471  6.926195
  14375.207  14375.200  0.500  0.952978  33.043  12.7411  6.927346
  14376.092  14376.100  0.500  0.953573  32.996  12.7154  6.919896
  14377.032  14377.000  0.500  0.954019  32.9608  12.6962  6.914879
  14377.800  14377.800  0.500  0.954171  32.9616  12.6945  6.917978
  14380.828  14380.810  0.500  0.955633  33.0018  12.6915  6.931607
  14384.011  14384.000  0.500  0.956559  32.961  12.664  6.914599
  14387.385  14387.360  0.500  0.956352  32.8981  12.6425  6.885042
  14390.897  14390.880  0.500  0.955396  32.9227  12.664  6.876181
  14394.601  14394.580  0.500  0.952866  32.9017  12.688  6.881702
  14398.470  14398.450  0.500  0.949561  32.8665  12.7164  6.912315
  14402.504  14402.500  0.500  0.946462  32.8445  12.7473  6.950851
  14406.740  14406.710  0.500  0.944718  32.8023  12.7532  6.962710
  14411.087  14411.090  0.500  0.943767  32.6854  12.7198  6.947684
  14415.665  14415.650  0.500  0.943473  32.7261  12.7394  6.955708
  14420.372  14420.380  0.500  0.943041  32.6853  12.729  6.947807
  14425.301  14425.280  0.500  0.943005  32.6504  12.7159  6.936409
  14430.352  14430.350  0.500  0.943322  32.6305  12.7041  6.925958
  14435.588  14435.590  0.500  0.943828  32.5642  12.6719  6.914751
  14440.993  14441.010  0.500  0.943477  32.5675  12.6776  6.930065
  14446.602  14446.590  0.500  0.941108  32.3905  12.6386  6.919810
  14452.316  14452.350  0.500  0.937401  32.4953  12.7266  6.972309
  14458.336  14458.280  0.500  0.934021  32.4288  12.7436  6.985573
  14464.352  14464.380  0.500  0.931333  32.3725  12.7557  6.998111
  14470.648  14470.650  0.500  0.929022  32.3357  12.7707  7.011212
  14477.087  14477.090  0.500  0.927088  32.2758  12.7717  7.017293
  14483.724  14483.700  0.500  0.925316  32.2208  12.7725  7.017615
  14490.487  14490.490  0.500  0.924102  32.2011  12.7802  7.022211
  14497.458  14497.450  0.500  0.923312  32.142  12.7668  7.020223
  14504.574  14504.570  0.500  0.922625  32.0924  12.7559  7.023082
  14511.863  14511.870  0.500  0.921641  32.0413  12.7481  7.024818
  14519.381  14519.350  0.500  0.919704  31.996  12.7548  7.034459
  14526.989  14526.990  0.500  0.917387  31.9501  12.766  7.049564
  14534.818  14534.800  0.500  0.914466  31.8935  12.7807  7.064387
  14542.775  14542.790  0.500  0.911868  31.8282  12.7877  7.072417
  14550.982  14550.950  0.500  0.909116  31.7262  12.7819  7.069692
  14559.282  14559.270  0.500  0.906612  31.7084  12.8067  7.085952
  14567.768  14567.770  0.500  0.904135  31.6577  12.8179  7.096093
  14576.412  14576.450  0.500  0.902201  31.6997  12.8598  7.129341
  14585.300  14585.290  0.500  0.900515  31.6305  12.8534  7.137626
  14594.282  14594.300  0.500  0.898652  31.5706  12.853  7.146831
  14603.471  14603.490  0.500  0.896778  31.5005  12.8485  7.152564
  14612.867  14612.850  0.500  0.894264  31.4385  12.8555  7.158751
  14622.370  14622.370  0.500  0.891499  31.3722  12.8639  7.167511
  14632.072  14632.070  0.500  0.888431  31.3104  12.878  7.181946
  14641.965  14641.950  0.500  0.885485  31.236  12.8853  7.192706
  14652.013  14651.990  0.500  0.882519  31.1735  12.8977  7.207023
  14662.206  14662.200  0.500  0.879680  31.0804  12.8957  7.218811
  14672.612  14672.590  0.500  0.876871  31.0281  12.9103  7.235500
  14683.173  14683.150  0.500  0.874218  30.9347  12.9056  7.240931
  14693.882  14693.880  0.500  0.871843  30.8875  12.9166  7.252345
  14704.778  14704.780  0.500  0.869361  30.8017  12.9127  7.256485
  14715.878  14715.850  0.500  0.866456  30.7379  12.9234  7.271114
  14727.101  14727.090  0.500  0.863614  30.6548  12.9251  7.277960
  14738.549  14738.510  0.500  0.860900  30.4787  12.8858  7.265732
  14750.092  14750.090  0.500  0.857728  30.5043  12.9376  7.305223
  14761.862  14761.850  0.500  0.854337  30.421  12.9461  7.319875
  14773.823  14773.780  0.500  0.851318  30.3495  12.9547  7.333665
  14785.929  14785.880  0.500  0.848270  30.2515  12.9523  7.339578
  14798.188  14798.150  0.500  0.845016  30.1854  12.9661  7.353180
  14810.602  14810.590  0.500  0.842009  30.1049  12.9705  7.365034
  14823.210  14823.210  0.500  0.838875  30.026  12.9771  7.377038
  14836.004  14835.990  0.500  0.835780  29.9011  12.9632  7.380167
  14848.993  14848.950  0.500  0.832684  29.838  12.9759  7.398680
  14862.131  14862.080  0.500  0.829527  29.7272  12.9687  7.403683
  14875.418  14875.380  0.500  0.826048  29.6675  12.9877  7.422882
  14888.904  14888.850  0.500  0.822747  29.5798  12.9922  7.434926
  14902.522  14902.500  0.500  0.819180  29.4821  12.9955  7.446311
  14916.339  14916.310  0.500  0.815830  29.4028  13.004  7.460401
  14930.349  14930.300  0.500  0.812381  29.3122  13.0088  7.473240
  14944.492  14944.460  0.500  0.809075  29.2212  13.0113  7.485783
  14958.829  14958.790  0.500  0.805589  29.1282  13.0152  7.499147
  14973.321  14973.290  0.500  0.802166  28.9907  12.9982  7.500100
  14988.009  14987.960  0.500  0.798503  28.9255  13.0166  7.519241
  15002.844  15002.800  0.500  0.795007  28.8329  13.0203  7.531181
  15017.876  15017.820  0.500  0.791464  28.7416  13.0251  7.543913
  15033.028  15033.000  0.500  0.787688  28.6429  13.0295  7.556751
  15048.389  15048.360  0.500  0.783949  28.5425  13.0325  7.569811
  15063.910  15063.890  0.500  0.780381  28.4466  13.0351  7.582757
  15079.623  15079.590  0.500  0.776615  28.3441  13.0372  7.596020
  15095.469  15095.460  0.500  0.772801  28.2409  13.0393  7.607837
  15111.519  15111.510  0.500  0.769091  28.1403  13.0412  7.619612
  15127.743  15127.720  0.500  0.765295  28.0338  13.0413  7.631400
  15144.133  15144.110  0.500  0.761443  27.9368  13.0463  7.645154
  15160.679  15160.670  0.500  0.757621  27.7759  13.0208  7.640839
  15177.413  15177.400  0.500  0.753901  27.7251  13.0454  7.667592
  15194.306  15194.300  0.500  0.749903  27.6201  13.0481  7.681185
  15205.690  15205.660  0.500  0.747164  27.5478  13.0496  7.688077