File: xdidata/Au/Au-L3-GoldThiocyanate.xdi
# XDI/1.0 BlueSky/1.10.0 BMM/2023-1.0-py310-tiled
# Beamline.name: BMM (06BM) -- Beamline for Materials Measurement (NIST)
# Beamline.xray_source: NSLS-II three-pole wiggler
# Beamline.collimation: paraboloid mirror, 5 nm Rh on 30 nm Pt
# Beamline.focusing: not in use
# Beamline.harmonic_rejection: flat mirror, Pt stripe, pitch = 7.0 mrad relative to beam
# Beamline.software: Bluesky 1.10.0, Ophyd 1.7.0, DataBroker 2.0.0b13, Python 3.10.8, 2023-1.0-py310-tiled
# Detector.I0: 10 cm N2
# Detector.I1: 25 cm N2
# Detector.I2: 25 cm N2
# Element.symbol: Au
# Element.edge: L3
# Element.reference: Au
# Element.reference_material: Au foil
# Facility.name: NSLS-II
# Facility.energy: 3.0
# Facility.current: 400.7
# Facility.mode: top-off
# Facility.GUP: 301027
# Facility.SAF: 310583
# Facility.cycle: 2023-2
# Mono.name: Si(111)
# Mono.d_spacing: 3.13519
# Mono.encoder_resolution: 0.0000050 deg/ct
# Mono.angle_offset: 16.0754 deg
# Mono.scan_mode: pseudo channel cut
# Mono.scan_type: step
# Mono.direction: forward in energy
# Sample.name: KAu(SCN)4, gold potassium thocyanate
# Sample.prep: powder in BN pellet
# Sample.x: 145.711 mm
# Sample.y: 114.376 mm
# Sample.SDD_position: 205.000 mm
# Scan.experimenters: Bruce Ravel
# Scan.edge_energy: 11918.7
# Scan.start_time: 2023-06-27T17:50:19
# Scan.end_time: 2023-06-27T17:58:22
# Scan.transient_id: 85202
# Scan.uid: 69124dc7-875e-4600-a0e7-eba7cf9667dc
# Scan.plot_hint: ln(I0/It)  --  ln($5/$6)
# Column.1: energy eV
# Column.2: requested_energy eV
# Column.3: measurement_time seconds
# Column.4: xmu
# Column.5: I0 nA
# Column.6: It nA
# Column.7: Ir nA
# ///////////
# Welcome to BMM
# -----------
# energy  requested_energy  measurement_time  xmu  I0  It  Ir
  11718.720  11718.700  0.500  1.168672  64.5811  20.0705  12.7675
  11748.758  11748.700  0.500  1.155954  64.0863  20.1716  12.8748
  11778.668  11778.700  0.500  1.143271  63.5702  20.2646  12.9744
  11808.745  11808.700  0.500  1.131006  63.3581  20.4462  13.1332
  11838.777  11838.700  0.500  1.119242  62.9642  20.5595  13.2439
  11868.732  11868.700  0.500  1.109734  62.569  20.6256  13.3164
  11890.658  11890.700  0.500  1.107893  62.2658  20.5635  13.2762
  11896.648  11896.700  0.500  1.110035  62.1679  20.4873  13.2154
  11902.669  11902.700  0.500  1.116030  61.4336  20.1243  12.9594
  11908.665  11908.700  0.500  1.130454  62.0169  20.0244  12.8388
  11909.541  11909.600  0.500  1.134219  62.0089  19.9466  12.7749
  11910.455  11910.500  0.500  1.138772  61.9993  19.8529  12.6975
  11911.369  11911.400  0.500  1.144110  61.9809  19.7414  12.608
  11912.270  11912.300  0.500  1.150619  61.9717  19.6104  12.5017
  11913.166  11913.200  0.500  1.158275  61.9427  19.4517  12.3742
  11914.068  11914.100  0.500  1.168118  61.9334  19.2583  12.2173
  11914.970  11915.000  0.500  1.180506  61.8985  19.0105  12.0174
  11915.878  11915.900  0.500  1.197169  61.8055  18.6682  11.749
  11916.774  11916.800  0.500  1.218600  61.4555  18.1689  11.37
  11917.677  11917.700  0.500  1.247428  61.2064  17.5811  10.9155
  11918.598  11918.600  0.500  1.287551  61.4335  16.9523  10.4119
  11919.494  11919.500  0.500  1.342692  61.7417  16.1233  9.760566
  11920.391  11920.400  0.500  1.417915  61.8227  14.9746  8.886699
  11921.307  11921.300  0.500  1.516311  61.827  13.5723  7.849024
  11922.179  11922.200  0.500  1.618034  61.821  12.2584  6.893794
  11923.088  11923.100  0.500  1.697288  61.8196  11.3241  6.198154
  11923.985  11924.000  0.500  1.727264  61.7922  10.9848  5.898435
  11924.901  11924.900  0.500  1.721827  61.7805  11.0426  5.855767
  11925.805  11925.800  0.500  1.708926  61.7705  11.1842  5.893783
  11926.703  11926.700  0.500  1.702973  61.7563  11.2484  5.911132
  11927.600  11927.600  0.500  1.704682  61.7416  11.2265  5.898699
  11928.486  11928.500  0.500  1.709635  61.7325  11.1694  5.869924
  11929.396  11929.400  0.500  1.714854  61.7229  11.1095  5.833090
  11930.288  11930.300  0.500  1.719825  61.7099  11.0521  5.790694
  11931.199  11931.200  0.500  1.726694  61.6817  10.9714  5.729598
  11932.104  11932.100  0.500  1.735904  61.6619  10.8673  5.649974
  11933.002  11933.000  0.500  1.745821  61.633  10.7551  5.566139
  11933.913  11933.900  0.500  1.754605  61.525  10.6423  5.481939
  11934.775  11934.800  0.500  1.761037  61.0939  10.5  5.391112
  11935.686  11935.700  0.500  1.764675  60.9426  10.436  5.345289
  11936.586  11936.600  0.500  1.764908  61.1981  10.4773  5.358219
  11937.510  11937.500  0.500  1.762311  61.486  10.5539  5.392681
  11938.397  11938.400  0.500  1.758231  61.5251  10.6038  5.413421
  11939.309  11939.300  0.500  1.754090  61.5417  10.6507  5.432456
  11940.202  11940.200  0.500  1.751285  61.5334  10.6792  5.436872
  11941.108  11941.100  0.500  1.750068  61.5094  10.688  5.432033
  11941.990  11942.000  0.500  1.750392  61.6751  10.7133  5.436788
  11942.896  11942.900  0.500  1.752949  61.6723  10.6855  5.412365
  11943.703  11943.700  0.500  1.757052  61.6594  10.6395  5.373681
  11946.721  11946.710  0.500  1.789303  61.6143  10.2943  5.075340
  11949.903  11949.900  0.500  1.817070  61.5726  10.0056  4.890287
  11953.279  11953.260  0.500  1.822782  61.5214  9.940358  4.945199
  11956.787  11956.780  0.500  1.830303  61.4745  9.858350  4.931587
  11960.497  11960.480  0.500  1.836396  61.4213  9.789996  4.918910
  11964.353  11964.350  0.500  1.848958  61.3672  9.659265  4.821824
  11968.404  11968.400  0.500  1.865064  61.3065  9.495539  4.676318
  11972.577  11972.610  0.500  1.869052  61.2502  9.449052  4.626358
  11976.965  11976.990  0.500  1.853443  61.1891  9.588133  4.730377
  11981.606  11981.550  0.500  1.832643  61.1136  9.777572  4.854829
  11986.238  11986.280  0.500  1.814756  61.0418  9.942344  4.956580
  11991.168  11991.180  0.500  1.799950  60.9664  10.0782  5.055690
  11996.215  11996.250  0.500  1.795040  60.8993  10.1166  5.086165
  12001.480  12001.490  0.500  1.797212  60.8225  10.082  5.053839
  12006.893  12006.910  0.500  1.803339  60.7554  10.0093  4.985450
  12012.488  12012.490  0.500  1.807346  60.6806  9.957021  4.950022
  12018.238  12018.250  0.500  1.810845  60.6046  9.909809  4.942266
  12024.177  12024.180  0.500  1.818050  60.5316  9.826819  4.914887
  12030.254  12030.280  0.500  1.823332  60.4431  9.760766  4.884811
  12036.558  12036.550  0.500  1.817112  60.3578  9.807798  4.914851
  12042.988  12042.990  0.500  1.800324  60.2555  9.956935  5.009080
  12049.603  12049.600  0.500  1.785263  59.2192  9.934196  5.013633
  12056.383  12056.390  0.500  1.777837  60.0544  10.1494  5.120642
  12063.361  12063.350  0.500  1.776332  59.9677  10.15  5.110744
  12070.473  12070.470  0.500  1.776715  59.8795  10.1312  5.095517
  12077.760  12077.770  0.500  1.777818  59.7733  10.1021  5.080804
  12085.246  12085.250  0.500  1.780472  59.675  10.0587  5.063506
  12092.895  12092.890  0.500  1.784400  59.3959  9.972441  5.018195
  12100.706  12100.700  0.500  1.785612  59.4745  9.973544  5.026704
  12108.681  12108.690  0.500  1.780396  59.3704  10.0082  5.066991
  12116.858  12116.850  0.500  1.772348  59.2611  10.0704  5.111312
  12125.194  12125.170  0.500  1.764529  59.1451  10.1296  5.145729
  12133.682  12133.670  0.500  1.758647  59.0556  10.174  5.164526
  12142.382  12142.350  0.500  1.755331  58.9268  10.1855  5.160975
  12151.209  12151.190  0.500  1.752710  58.8002  10.1903  5.156522
  12160.205  12160.200  0.500  1.749010  58.6606  10.2038  5.171394
  12169.394  12169.390  0.500  1.745146  58.5592  10.2256  5.207288
  12178.766  12178.750  0.500  1.742709  58.4251  10.2271  5.226269
  12188.262  12188.270  0.500  1.741946  58.2921  10.2116  5.220651
  12197.974  12197.970  0.500  1.739029  58.1505  10.2165  5.230519
  12207.851  12207.850  0.500  1.734127  58.0353  10.2464  5.248813
  12217.887  12217.890  0.500  1.729504  57.909  10.2715  5.256698
  12228.109  12228.100  0.500  1.723731  57.776  10.3072  5.273681
  12238.479  12238.490  0.500  1.716589  57.4874  10.3292  5.300681
  12249.070  12249.050  0.500  1.709159  57.4735  10.4037  5.358126
  12259.797  12259.780  0.500  1.704146  57.3292  10.4298  5.380341
  12270.700  12270.680  0.500  1.700807  57.0279  10.4097  5.375687
  12281.761  12281.750  0.500  1.697817  57.0296  10.4411  5.399307
  12292.994  12292.990  0.500  1.695332  56.4239  10.3559  5.357301
  12304.419  12304.410  0.500  1.691875  56.9004  10.4796  5.424954
  12316.011  12315.990  0.500  1.687057  56.7397  10.5004  5.441252
  12327.790  12327.750  0.500  1.680484  56.5501  10.5344  5.473206
  12339.692  12339.680  0.500  1.673033  56.4199  10.5887  5.517648
  12351.790  12351.780  0.500  1.666671  56.2566  10.6255  5.546912
  12364.079  12364.050  0.500  1.661228  56.0322  10.6408  5.560757
  12376.519  12376.490  0.500  1.656255  55.9488  10.678  5.583963
  12389.138  12389.110  0.500  1.651760  55.7954  10.6967  5.602201
  12401.911  12401.890  0.500  1.647014  55.6271  10.7151  5.618561
  12414.885  12414.850  0.500  1.642034  55.4477  10.7339  5.640418
  12428.015  12427.980  0.500  1.636291  55.2711  10.7613  5.667300
  12441.321  12441.280  0.500  1.630229  55.1249  10.7981  5.699673
  12454.784  12454.750  0.500  1.624007  54.8757  10.8164  5.720783
  12468.419  12468.400  0.500  1.617852  54.7248  10.8533  5.749819
  12482.234  12482.210  0.500  1.611473  54.5583  10.8895  5.775828
  12496.257  12496.200  0.500  1.605370  54.4115  10.9267  5.803167
  12510.421  12510.360  0.500  1.599060  54.2158  10.9563  5.829357
  12524.733  12524.690  0.500  1.592910  54.0289  10.9859  5.858428
  12539.230  12539.190  0.500  1.586922  53.7853  11.002  5.879947
  12553.918  12553.860  0.500  1.580839  53.6674  11.0449  5.915267
  12568.745  12568.700  0.500  1.574661  53.4699  11.0724  5.943453
  12583.752  12583.720  0.500  1.568613  53.2805  11.1001  5.966109
  12598.948  12598.900  0.500  1.562294  53.0848  11.1295  5.991962
  12614.299  12614.260  0.500  1.555776  52.8882  11.1608  6.019418
  12629.834  12629.790  0.500  1.548568  52.6641  11.1939  6.049366
  12645.533  12645.490  0.500  1.541557  52.4982  11.2371  6.087771
  12661.397  12661.360  0.500  1.534611  52.3002  11.2727  6.120767
  12677.470  12677.410  0.500  1.527915  52.0948  11.3039  6.150288
  12693.654  12693.620  0.500  1.521462  51.8835  11.331  6.177143
  12710.057  12710.010  0.500  1.514896  51.6787  11.3606  6.205743
  12726.615  12726.570  0.500  1.508393  51.4662  11.3877  6.232868
  12743.338  12743.300  0.500  1.501337  51.2678  11.4241  6.264002
  12760.254  12760.200  0.500  1.494552  51.0566  11.4545  6.296367
  12771.602  12771.560  0.500  1.489421  50.9094  11.4802  6.318404