File: xdidata/Au/Au-L1-GoldSulfide.xdi
# XDI/1.0 BlueSky/1.10.0 BMM/2023-1.0-py310-tiled
# Beamline.name: BMM (06BM) -- Beamline for Materials Measurement (NIST)
# Beamline.xray_source: NSLS-II three-pole wiggler
# Beamline.collimation: paraboloid mirror, 5 nm Rh on 30 nm Pt
# Beamline.focusing: not in use
# Beamline.harmonic_rejection: flat mirror, Pt stripe, pitch = 7.0 mrad relative to beam
# Beamline.software: Bluesky 1.10.0, Ophyd 1.7.0, DataBroker 2.0.0b13, Python 3.10.8, 2023-1.0-py310-tiled
# Detector.I0: 10 cm N2
# Detector.I1: 25 cm N2
# Detector.I2: 25 cm N2
# Element.symbol: Au
# Element.edge: L1
# Element.reference: Au
# Element.reference_material: Au foil
# Facility.name: NSLS-II
# Facility.energy: 3.0
# Facility.current: 400.0
# Facility.mode: top-off
# Facility.GUP: 301027
# Facility.SAF: 310583
# Facility.cycle: 2023-2
# Mono.name: Si(111)
# Mono.d_spacing: 3.13519
# Mono.encoder_resolution: 0.0000050 deg/ct
# Mono.angle_offset: 16.0754 deg
# Mono.scan_mode: pseudo channel cut
# Mono.scan_type: step
# Mono.direction: forward in energy
# Sample.name: Au2S
# Sample.prep: powder on tape
# Sample.x: 145.711 mm
# Sample.y: 114.376 mm
# Sample.SDD_position: 205.000 mm
# Scan.experimenters: Bruce Ravel
# Scan.edge_energy: 14352.8
# Scan.start_time: 2023-06-27T19:54:41
# Scan.end_time: 2023-06-27T20:02:03
# Scan.transient_id: 85278
# Scan.uid: c473002f-bf3f-4d91-9b39-b417a42211b0
# Scan.plot_hint: ln(I0/It)  --  ln($5/$6)
# Column.1: energy eV
# Column.2: requested_energy eV
# Column.3: measurement_time seconds
# Column.4: xmu
# Column.5: I0 nA
# Column.6: It nA
# Column.7: Ir nA
# ///////////
# Welcome to BMM
# -----------
# energy  requested_energy  measurement_time  xmu  I0  It  Ir
  14152.730  14152.800  0.500  0.815223  34.5023  15.2687  8.631737
  14182.845  14182.800  0.500  0.806744  34.3898  15.3485  8.698980
  14212.842  14212.800  0.500  0.799079  34.1357  15.3523  8.721966
  14242.790  14242.800  0.500  0.792226  33.9092  15.3553  8.752024
  14272.831  14272.800  0.500  0.784738  31.9226  14.5643  8.325385
  14302.821  14302.800  0.500  0.779338  33.5949  15.4103  8.822748
  14324.726  14324.800  0.500  0.776428  33.4713  15.3983  8.822210
  14330.730  14330.800  0.500  0.776623  33.4209  15.3722  8.808407
  14336.756  14336.800  0.500  0.777651  33.3833  15.3391  8.785332
  14342.715  14342.800  0.500  0.780377  33.3153  15.2662  8.734137
  14343.623  14343.700  0.500  0.781094  33.3005  15.2485  8.722505
  14344.541  14344.600  0.500  0.781986  33.2912  15.2306  8.708999
  14345.449  14345.500  0.500  0.783088  33.2856  15.2113  8.693251
  14346.349  14346.400  0.500  0.784304  33.2917  15.1956  8.681477
  14347.258  14347.300  0.500  0.785798  33.3006  15.1769  8.666235
  14348.176  14348.200  0.500  0.787495  33.2867  15.1449  8.642209
  14349.076  14349.100  0.500  0.789258  33.2775  15.114  8.615627
  14349.976  14350.000  0.500  0.791678  33.2739  15.0759  8.589764
  14350.885  14350.900  0.500  0.794238  33.2613  15.0316  8.553180
  14351.794  14351.800  0.500  0.797635  33.2478  14.9746  8.510505
  14352.677  14352.700  0.500  0.801553  33.2398  14.9124  8.462702
  14353.595  14353.600  0.500  0.806311  33.2284  14.8366  8.403787
  14354.478  14354.500  0.500  0.811854  33.2088  14.7458  8.335480
  14355.388  14355.400  0.500  0.818421  33.2233  14.6557  8.265326
  14356.271  14356.300  0.500  0.825918  33.202  14.5369  8.174616
  14357.172  14357.200  0.500  0.834086  33.1878  14.4125  8.085428
  14358.091  14358.100  0.500  0.842555  33.1525  14.2758  7.982330
  14358.992  14359.000  0.500  0.850328  33.0983  14.1421  7.885294
  14359.875  14359.900  0.500  0.857615  33.0739  14.029  7.798830
  14360.795  14360.800  0.500  0.864342  33.2316  14.0014  7.762256
  14361.705  14361.700  0.500  0.870557  33.2512  13.9229  7.694877
  14362.598  14362.600  0.500  0.876043  33.2574  13.8493  7.632344
  14363.500  14363.500  0.500  0.881115  33.2422  13.7729  7.565920
  14364.402  14364.400  0.500  0.885643  33.2468  13.7126  7.514186
  14365.322  14365.300  0.500  0.889172  33.2268  13.6561  7.459008
  14366.197  14366.200  0.500  0.892211  33.2249  13.6139  7.419546
  14367.090  14367.100  0.500  0.894572  33.1995  13.5714  7.383482
  14367.992  14368.000  0.500  0.896162  33.1425  13.5265  7.346798
  14368.895  14368.900  0.500  0.897315  33.1363  13.5084  7.330504
  14369.789  14369.800  0.500  0.897937  33.1538  13.5072  7.326059
  14370.673  14370.700  0.500  0.898458  33.175  13.5088  7.327676
  14371.576  14371.600  0.500  0.898705  33.1715  13.504  7.325093
  14372.497  14372.500  0.500  0.899198  33.1667  13.4954  7.325050
  14373.391  14373.400  0.500  0.899166  33.1571  13.4919  7.325445
  14374.294  14374.300  0.500  0.899523  33.1478  13.4833  7.326630
  14375.207  14375.200  0.500  0.899976  33.1329  13.4712  7.328639
  14376.101  14376.100  0.500  0.900395  33.0878  13.4472  7.320824
  14377.022  14377.000  0.500  0.900679  33.0495  13.4278  7.318754
  14377.800  14377.800  0.500  0.900995  33.0535  13.4252  7.323187
  14380.828  14380.810  0.500  0.902034  33.0977  13.4292  7.338790
  14384.011  14384.000  0.500  0.902779  33.054  13.4014  7.321745
  14387.385  14387.360  0.500  0.903043  32.9862  13.3704  7.284264
  14390.906  14390.880  0.500  0.902387  33.0102  13.3889  7.273042
  14394.583  14394.580  0.500  0.900292  32.9857  13.4071  7.274780
  14398.451  14398.450  0.500  0.896694  32.9614  13.4455  7.310563
  14402.522  14402.500  0.500  0.892959  32.9283  13.4822  7.353198
  14406.731  14406.710  0.500  0.890780  32.8876  13.495  7.372023
  14411.096  14411.090  0.500  0.889987  32.7662  13.4558  7.350302
  14415.683  14415.650  0.500  0.889516  32.8108  13.4805  7.362819
  14420.381  14420.380  0.500  0.889563  32.7778  13.4663  7.352956
  14425.283  14425.280  0.500  0.889380  32.7388  13.4527  7.344129
  14430.370  14430.350  0.500  0.889548  32.7152  13.4408  7.332330
  14435.597  14435.590  0.500  0.889599  32.6385  13.4086  7.318581
  14441.029  14441.010  0.500  0.889330  32.6469  13.4156  7.337794
  14446.593  14446.590  0.500  0.887400  32.4725  13.3698  7.324647
  14452.353  14452.350  0.500  0.884055  32.5651  13.4528  7.374666
  14458.291  14458.280  0.500  0.880656  32.5204  13.4801  7.392547
  14464.380  14464.380  0.500  0.877822  32.477  13.5003  7.409117
  14470.676  14470.650  0.500  0.875344  32.4316  13.5148  7.421868
  14477.105  14477.090  0.500  0.873263  32.3821  13.5223  7.430312
  14483.706  14483.700  0.500  0.871535  32.3144  13.5174  7.428452
  14490.505  14490.490  0.500  0.870189  32.2835  13.5227  7.432503
  14497.486  14497.450  0.500  0.869193  32.2368  13.5166  7.436058
  14504.565  14504.570  0.500  0.868344  32.1917  13.5091  7.437691
  14511.891  14511.870  0.500  0.867147  32.1347  13.5013  7.442251
  14519.371  14519.350  0.500  0.865310  32.0832  13.5045  7.452987
  14526.998  14526.990  0.500  0.862808  32.0436  13.5216  7.468635
  14534.827  14534.800  0.500  0.860218  31.9771  13.5285  7.481597
  14542.775  14542.790  0.500  0.857747  31.9263  13.5405  7.492517
  14550.982  14550.950  0.500  0.855035  31.8185  13.5314  7.487524
  14559.310  14559.270  0.500  0.852435  31.8043  13.5606  7.503709
  14567.777  14567.770  0.500  0.850119  31.7502  13.5689  7.513615
  14576.468  14576.450  0.500  0.848043  31.6923  13.5723  7.526690
  14585.300  14585.290  0.500  0.846032  31.6221  13.5695  7.535747
  14594.291  14594.300  0.500  0.844087  31.5611  13.5697  7.549487
  14603.536  14603.490  0.500  0.841876  31.4877  13.5681  7.556739
  14612.867  14612.850  0.500  0.839558  31.4195  13.5701  7.561137
  14622.398  14622.370  0.500  0.836972  31.3615  13.5801  7.572668
  14632.063  14632.070  0.500  0.834034  31.2914  13.5897  7.581765
  14641.994  14641.950  0.500  0.831034  31.2523  13.6135  7.601133
  14652.013  14651.990  0.500  0.828129  31.2224  13.64  7.625703
  14662.206  14662.200  0.500  0.825057  31.137  13.6445  7.639212
  14672.574  14672.590  0.500  0.822010  31.0844  13.6631  7.660465
  14683.154  14683.150  0.500  0.819476  30.9901  13.6562  7.664556
  14693.901  14693.880  0.500  0.816878  30.9298  13.6651  7.675262
  14704.806  14704.780  0.500  0.814174  30.8476  13.6656  7.682914
  14715.888  14715.850  0.500  0.811570  30.7927  13.6769  7.697279
  14727.129  14727.090  0.500  0.808792  30.7159  13.6807  7.708680
  14738.568  14738.510  0.500  0.805665  30.5201  13.6361  7.692696
  14750.130  14750.090  0.500  0.802623  30.5587  13.6949  7.734317
  14761.872  14761.850  0.500  0.799473  30.4695  13.698  7.747131
  14773.776  14773.780  0.500  0.796126  30.397  13.7113  7.764800
  14785.890  14785.880  0.500  0.792956  30.2926  13.7076  7.769764
  14798.169  14798.150  0.500  0.789878  30.2329  13.7227  7.786218
  14810.631  14810.590  0.500  0.786680  30.1461  13.7271  7.798645
  14823.249  14823.210  0.500  0.783730  30.063  13.7297  7.811037
  14836.033  14835.990  0.500  0.780589  29.9437  13.7183  7.813670
  14848.983  14848.950  0.500  0.777143  29.8758  13.7344  7.833095
  14862.112  14862.080  0.500  0.773920  29.7675  13.7288  7.840235
  14875.409  14875.380  0.500  0.770532  29.7045  13.7463  7.859272
  14888.865  14888.850  0.500  0.767140  29.6087  13.7485  7.870968
  14902.560  14902.500  0.500  0.763493  29.5206  13.7576  7.884690
  14916.369  14916.310  0.500  0.760047  29.43  13.7628  7.896664
  14930.339  14930.300  0.500  0.756484  29.3362  13.7679  7.912056
  14944.492  14944.460  0.500  0.753140  29.2459  13.7715  7.926231
  14958.839  14958.790  0.500  0.749637  29.1488  13.7739  7.937282
  14973.341  14973.290  0.500  0.746126  29.0131  13.758  7.940078
  14988.009  14987.960  0.500  0.742591  28.9371  13.7706  7.959199
  15002.814  15002.800  0.500  0.738826  28.8516  13.7817  7.973947
  15017.856  15017.820  0.500  0.735262  28.7528  13.7835  7.986902
  15033.048  15033.000  0.500  0.731442  28.6497  13.7867  7.997508
  15048.399  15048.360  0.500  0.727724  28.5548  13.7922  8.012175
  15063.890  15063.890  0.500  0.723984  28.4517  13.7939  8.026912
  15079.623  15079.590  0.500  0.720192  28.3523  13.7979  8.041266
  15095.519  15095.460  0.500  0.716362  28.25  13.8008  8.054313
  15111.549  15111.510  0.500  0.712579  28.1456  13.802  8.066206
  15127.763  15127.720  0.500  0.708670  28.0385  13.8033  8.080418
  15144.143  15144.110  0.500  0.705086  27.9391  13.8038  8.091951
  15160.669  15160.670  0.500  0.701150  27.7742  13.7764  8.086847
  15177.443  15177.400  0.500  0.697192  27.7261  13.8071  8.118624
  15194.346  15194.300  0.500  0.693167  27.6198  13.8096  8.132153
  15205.669  15205.660  0.500  0.690398  27.5472  13.8115  8.141662