File: xdidata/Au/Au-L1-La4LiAuO8.xdi
# XDI/1.0 BlueSky/1.10.0 BMM/2023-1.0-py310-tiled
# Beamline.name: BMM (06BM) -- Beamline for Materials Measurement (NIST)
# Beamline.xray_source: NSLS-II three-pole wiggler
# Beamline.collimation: paraboloid mirror, 5 nm Rh on 30 nm Pt
# Beamline.focusing: not in use
# Beamline.harmonic_rejection: flat mirror, Pt stripe, pitch = 7.0 mrad relative to beam
# Beamline.software: Bluesky 1.10.0, Ophyd 1.7.0, DataBroker 2.0.0b13, Python 3.10.8, 2023-1.0-py310-tiled
# Detector.I0: 10 cm N2
# Detector.I1: 25 cm N2
# Detector.I2: 25 cm N2
# Element.symbol: Au
# Element.edge: L1
# Element.reference: Au
# Element.reference_material: Au foil
# Facility.name: NSLS-II
# Facility.energy: 3.0
# Facility.current: 400.0
# Facility.mode: top-off
# Facility.GUP: 301027
# Facility.SAF: 310583
# Facility.cycle: 2023-2
# Mono.name: Si(111)
# Mono.d_spacing: 3.13519
# Mono.encoder_resolution: 0.0000050 deg/ct
# Mono.angle_offset: 16.0754 deg
# Mono.scan_mode: pseudo channel cut
# Mono.scan_type: step
# Mono.direction: forward in energy
# Sample.name: La4LiAuO8
# Sample.prep: powder on tape
# Sample.x: 145.711 mm
# Sample.y: 114.376 mm
# Sample.SDD_position: 205.000 mm
# Scan.experimenters: Bruce Ravel
# Scan.edge_energy: 14352.8
# Scan.start_time: 2023-06-27T20:28:02
# Scan.end_time: 2023-06-27T20:35:56
# Scan.transient_id: 85298
# Scan.uid: f0270cbe-5d36-4b96-b2c1-f7f115644796
# Scan.plot_hint: ln(I0/It)  --  ln($5/$6)
# Column.1: energy eV
# Column.2: requested_energy eV
# Column.3: measurement_time seconds
# Column.4: xmu
# Column.5: I0 nA
# Column.6: It nA
# Column.7: Ir nA
# ///////////
# sample courtesy Martin Stennett, University of Sheffield, see DOI: 10.1021/ic100486g
# -----------
# energy  requested_energy  measurement_time  xmu  I0  It  Ir
  14152.861  14152.800  0.500  0.806927  34.5235  15.4053  8.698080
  14182.880  14182.800  0.500  0.799505  34.4198  15.4735  8.758687
  14212.842  14212.800  0.500  0.794058  34.1912  15.4546  8.770027
  14242.817  14242.800  0.500  0.787134  33.9468  15.4508  8.794430
  14272.840  14272.800  0.500  0.780180  31.9189  14.6292  8.351061
  14302.857  14302.800  0.500  0.774497  33.4799  15.4321  8.821506
  14324.807  14324.800  0.500  0.770655  33.3613  15.4366  8.832258
  14330.774  14330.800  0.500  0.769707  33.2987  15.4222  8.824151
  14336.810  14336.800  0.500  0.769173  33.2787  15.4212  8.820472
  14342.778  14342.800  0.500  0.768761  33.2189  15.3999  8.798545
  14343.632  14343.700  0.500  0.768770  33.1967  15.3894  8.790133
  14344.541  14344.600  0.500  0.768808  33.1736  15.3781  8.779798
  14345.467  14345.500  0.500  0.769024  33.1829  15.3791  8.777481
  14346.367  14346.400  0.500  0.768995  33.1824  15.3793  8.774298
  14347.276  14347.300  0.500  0.769104  33.1779  15.3756  8.765668
  14348.176  14348.200  0.500  0.769511  33.1852  15.3727  8.760801
  14349.085  14349.100  0.500  0.769632  33.1728  15.3651  8.747779
  14349.976  14350.000  0.500  0.770104  33.1704  15.3567  8.735919
  14350.876  14350.900  0.500  0.770324  33.1539  15.3457  8.720258
  14351.767  14351.800  0.500  0.770834  33.14  15.3314  8.699701
  14352.686  14352.700  0.500  0.771544  33.1367  15.319  8.680612
  14353.595  14353.600  0.500  0.772128  33.1323  15.3081  8.657156
  14354.487  14354.500  0.500  0.773170  33.108  15.2809  8.624224
  14355.406  14355.400  0.500  0.774413  33.1049  15.2605  8.591534
  14356.298  14356.300  0.500  0.775724  33.1114  15.2435  8.558169
  14357.199  14357.200  0.500  0.777252  33.2007  15.2613  8.544105
  14358.100  14358.100  0.500  0.779164  33.1696  15.2178  8.494939
  14358.983  14359.000  0.500  0.780961  33.1138  15.165  8.442470
  14359.866  14359.900  0.500  0.782659  33.1024  15.134  8.400632
  14360.777  14360.800  0.500  0.784572  33.1274  15.1165  8.365185
  14361.705  14361.700  0.500  0.786671  33.1692  15.1039  8.333161
  14362.616  14362.600  0.500  0.788515  33.1559  15.07  8.289076
  14363.509  14363.500  0.500  0.790287  33.1644  15.0472  8.252730
  14364.411  14364.400  0.500  0.792001  33.1507  15.0152  8.211174
  14365.313  14365.300  0.500  0.793803  33.1414  14.984  8.172656
  14366.215  14366.200  0.500  0.795894  33.1269  14.9461  8.132087
  14367.063  14367.100  0.500  0.797861  33.0781  14.8948  8.090552
  14367.974  14368.000  0.500  0.799917  33.0481  14.8507  8.053571
  14368.904  14368.900  0.500  0.802130  33.0571  14.8219  8.029540
  14369.779  14369.800  0.500  0.804466  33.0571  14.7873  8.007833
  14370.709  14370.700  0.500  0.806521  33.0731  14.7641  7.995042
  14371.621  14371.600  0.500  0.808304  33.0773  14.7397  7.983159
  14372.524  14372.500  0.500  0.809705  33.0716  14.7165  7.974275
  14373.391  14373.400  0.500  0.810660  33.0725  14.7029  7.970907
  14374.312  14374.300  0.500  0.811191  33.06  14.6895  7.971170
  14375.188  14375.200  0.500  0.810972  33.0265  14.6778  7.971172
  14376.083  14376.100  0.500  0.810660  32.9848  14.6639  7.971452
  14376.995  14377.000  0.500  0.809998  32.9613  14.6631  7.977408
  14377.791  14377.800  0.500  0.809555  32.9808  14.6783  7.992292
  14380.855  14380.810  0.500  0.808027  33.0105  14.714  8.028489
  14383.992  14384.000  0.500  0.807477  32.967  14.7027  8.019474
  14387.385  14387.360  0.500  0.807987  32.9047  14.6674  7.980108
  14390.879  14390.880  0.500  0.806624  32.9213  14.6948  7.967473
  14394.610  14394.580  0.500  0.802841  32.8961  14.7393  7.985273
  14398.470  14398.450  0.500  0.798745  32.8806  14.7928  8.029659
  14402.504  14402.500  0.500  0.795858  32.8326  14.8138  8.068717
  14406.722  14406.710  0.500  0.794956  32.8069  14.8156  8.080175
  14411.087  14411.090  0.500  0.795737  32.6752  14.7446  8.042948
  14415.674  14415.650  0.500  0.796723  32.7246  14.7524  8.045476
  14420.381  14420.380  0.500  0.796892  32.6935  14.7359  8.033289
  14425.301  14425.280  0.500  0.796323  32.6455  14.7226  8.022552
  14430.352  14430.350  0.500  0.795167  32.6311  14.7331  8.023903
  14435.607  14435.590  0.500  0.792997  32.5701  14.7375  8.032030
  14441.002  14441.010  0.500  0.791998  32.5605  14.7479  8.050964
  14446.602  14446.590  0.500  0.792132  32.3999  14.6732  8.025878
  14452.353  14452.350  0.500  0.791446  32.4846  14.7216  8.056418
  14458.291  14458.280  0.500  0.789449  32.4385  14.7302  8.064675
  14464.380  14464.380  0.500  0.786618  32.3849  14.7475  8.080449
  14470.603  14470.650  0.500  0.784200  32.3397  14.7626  8.095164
  14477.069  14477.090  0.500  0.782234  32.2934  14.7704  8.104015
  14483.669  14483.700  0.500  0.780881  32.234  14.7632  8.102335
  14490.395  14490.490  0.500  0.779570  32.1866  14.7609  8.101941
  14497.468  14497.450  0.500  0.778800  32.1319  14.7471  8.101331
  14504.574  14504.570  0.500  0.777850  32.0817  14.7381  8.102330
  14511.854  14511.870  0.500  0.776504  32.0267  14.7326  8.109669
  14519.362  14519.350  0.500  0.774914  31.9846  14.7367  8.119766
  14526.980  14526.990  0.500  0.773193  31.9336  14.7386  8.127149
  14534.809  14534.800  0.500  0.771630  31.8797  14.7367  8.136542
  14542.775  14542.790  0.500  0.770453  31.9182  14.7719  8.159398
  14550.945  14550.950  0.500  0.768639  31.8207  14.7534  8.150386
  14559.245  14559.270  0.500  0.766416  31.8  14.7767  8.166318
  14567.796  14567.770  0.500  0.763995  31.7449  14.7868  8.176988
  14576.449  14576.450  0.500  0.761826  31.6715  14.7847  8.186622
  14585.300  14585.290  0.500  0.759795  31.6121  14.7869  8.199800
  14594.300  14594.300  0.500  0.758308  31.5504  14.7801  8.210852
  14603.499  14603.490  0.500  0.756478  31.488  14.7778  8.216108
  14612.830  14612.850  0.500  0.754824  31.4244  14.7724  8.219517
  14622.398  14622.370  0.500  0.752662  31.3697  14.7786  8.224568
  14632.053  14632.070  0.500  0.750219  31.2889  14.7766  8.231453
  14641.965  14641.950  0.500  0.748365  31.2171  14.77  8.235529
  14652.013  14651.990  0.500  0.746616  31.1536  14.7658  8.242733
  14662.206  14662.200  0.500  0.744651  31.0713  14.7558  8.247961
  14672.583  14672.590  0.500  0.742238  31.0128  14.7635  8.264691
  14683.154  14683.150  0.500  0.739949  30.9177  14.752  8.268302
  14693.901  14693.880  0.500  0.737540  30.8636  14.7617  8.278107
  14704.787  14704.780  0.500  0.734823  30.7868  14.765  8.289156
  14715.869  14715.850  0.500  0.732465  30.7193  14.7675  8.298427
  14727.101  14727.090  0.500  0.730448  30.6449  14.7614  8.304317
  14738.540  14738.510  0.500  0.728456  30.4633  14.7032  8.283450
  14750.111  14750.090  0.500  0.725930  30.4897  14.7532  8.322127
  14761.872  14761.850  0.500  0.723338  30.4128  14.7542  8.333719
  14773.795  14773.780  0.500  0.720613  30.3284  14.7534  8.341856
  14785.919  14785.880  0.500  0.718237  30.2421  14.7464  8.347708
  14798.197  14798.150  0.500  0.715788  30.171  14.7478  8.355956
  14810.631  14810.590  0.500  0.713318  30.0873  14.7432  8.363775
  14823.229  14823.210  0.500  0.711025  30.0105  14.7394  8.371733
  14836.013  14835.990  0.500  0.708332  29.8836  14.7166  8.369962
  14848.964  14848.950  0.500  0.705436  29.8247  14.7302  8.388807
  14862.112  14862.080  0.500  0.702499  29.707  14.7153  8.391872
  14875.409  14875.380  0.500  0.699895  29.6513  14.7259  8.409196
  14888.894  14888.850  0.500  0.697426  29.5582  14.716  8.413433
  14902.522  14902.500  0.500  0.694667  29.4708  14.713  8.421466
  14916.359  14916.310  0.500  0.691877  29.385  14.7112  8.431356
  14930.329  14930.300  0.500  0.689084  29.2954  14.7074  8.439303
  14944.502  14944.460  0.500  0.686345  29.2022  14.7008  8.448038
  14958.829  14958.790  0.500  0.683481  29.1075  14.6951  8.459409
  14973.321  14973.290  0.500  0.680548  28.9731  14.6702  8.455301
  14987.999  14987.960  0.500  0.677712  28.9076  14.6786  8.472438
  15002.854  15002.800  0.500  0.674914  28.8242  14.6773  8.481327
  15017.837  15017.820  0.500  0.672044  28.7317  14.6722  8.491460
  15033.018  15033.000  0.500  0.669068  28.6389  14.6684  8.500884
  15048.369  15048.360  0.500  0.665591  28.5356  14.6664  8.510511
  15063.890  15063.890  0.500  0.662771  28.4389  14.658  8.520383
  15079.594  15079.590  0.500  0.659537  28.3377  14.6532  8.526997
  15095.479  15095.460  0.500  0.656592  28.237  14.6441  8.537400
  15111.519  15111.510  0.500  0.653474  28.1362  14.6375  8.544826
  15127.743  15127.720  0.500  0.650501  28.0316  14.6264  8.550957
  15144.173  15144.110  0.500  0.647234  27.9341  14.6233  8.560283
  15160.709  15160.670  0.500  0.644008  27.7677  14.5831  8.548414
  15177.474  15177.400  0.500  0.640835  27.7221  14.6055  8.576614
  15194.326  15194.300  0.500  0.637610  27.613  14.595  8.583002
  15205.680  15205.660  0.500  0.635572  27.5453  14.5889  8.588812