File: xdidata/Data/Ce/Ce-L3-CeriumDioxide.xdi
# XDI/1.0 BlueSky/1.10.0 BMM/2023-1.0-py310-tiled
# Beamline.name: BMM (06BM) -- Beamline for Materials Measurement (NIST)
# Beamline.xray_source: NSLS-II three-pole wiggler
# Beamline.collimation: paraboloid mirror, 5 nm Rh on 30 nm Pt
# Beamline.focusing: not in use
# Beamline.harmonic_rejection: flat mirror, Si stripe, pitch = 7.0 mrad relative to beam
# Beamline.software: Bluesky 1.10.0, Ophyd 1.7.0, DataBroker 2.0.0b13, Python 3.10.8, 2023-1.0-py310-tiled
# Detector.I0: 10 cm N2
# Detector.I1: 25 cm N2
# Detector.I2: 25 cm N2
# Element.symbol: Ce
# Element.edge: L3
# Element.reference: Ce
# Element.reference_material: CeO2
# Facility.name: NSLS-II
# Facility.energy: 3.0
# Facility.current: 399.4
# Facility.mode: top-off
# Facility.GUP: 301027
# Facility.SAF: 310583
# Facility.cycle: 2023-2
# Mono.name: Si(111)
# Mono.d_spacing: 3.13519
# Mono.encoder_resolution: 0.0000050 deg/ct
# Mono.angle_offset: 16.0754 deg
# Mono.scan_mode: pseudo channel cut
# Mono.scan_type: step
# Mono.direction: forward in energy
# Sample.name: CeO2
# Sample.prep: PEG pellet
# Sample.x: 109.138 mm
# Sample.y: 153.150 mm
# Sample.SDD_position: 205.000 mm
# Scan.experimenters: Bruce Ravel
# Scan.edge_energy: 5723.4
# Scan.start_time: 2023-05-28T11:35:38
# Scan.end_time: 2023-05-28T11:42:04
# Scan.transient_id: 78644
# Scan.uid: e13d55a0-0798-448d-a14f-21bb283d69b5
# Scan.plot_hint: ln(It/Ir)  --  ln($6/$7)
# Column.1: energy eV
# Column.2: requested_energy eV
# Column.3: measurement_time seconds
# Column.4: xmu
# Column.5: I0 nA
# Column.6: It nA
# Column.7: Ir nA
# ///////////
# sample courtesy Martin Stennett, University of Sheffield
# -----------
# energy  requested_energy  measurement_time  xmu  I0  It  Ir
  5523.408  5523.400  0.500  3.252136  111.163  49.9966  1.934442
  5543.417  5543.400  0.500  3.216906  112.074  51.2305  2.053261
  5563.412  5563.400  0.500  3.182389  112.972  52.4182  2.174646
  5583.408  5583.400  0.500  3.148511  113.797  53.6486  2.302384
  5603.408  5603.400  0.500  3.115174  114.522  54.8016  2.431591
  5623.407  5623.400  0.500  3.082446  115.165  55.9624  2.565706
  5643.384  5643.400  0.500  3.050155  114.831  56.6334  2.681679
  5663.392  5663.400  0.500  3.018256  115.315  57.7137  2.821415
  5683.399  5683.400  0.500  2.986784  115.672  58.7378  2.963287
  5695.396  5695.400  0.500  2.968306  115.922  59.3512  3.050074
  5699.392  5699.400  0.500  2.962617  115.984  59.5276  3.076592
  5703.387  5703.400  0.500  2.956675  116.049  59.7691  3.107485
  5707.401  5707.400  0.500  2.950839  116.094  59.925  3.133827
  5711.399  5711.400  0.500  2.945479  116.161  60.1331  3.161609
  5713.689  5713.700  0.500  2.942666  116.218  60.2544  3.176914
  5714.288  5714.300  0.500  2.942189  116.192  60.2934  3.180485
  5714.891  5714.900  0.500  2.941395  116.192  60.3144  3.184117
  5715.490  5715.500  0.500  2.940940  116.214  60.3566  3.187799
  5716.094  5716.100  0.500  2.940484  116.21  60.3732  3.190127
  5716.689  5716.700  0.500  2.939955  116.207  60.4006  3.193267
  5717.293  5717.300  0.500  2.939499  116.203  60.4286  3.196201
  5717.891  5717.900  0.500  2.939272  116.196  60.407  3.195783
  5718.494  5718.500  0.500  2.939363  116.192  60.4434  3.197420
  5719.094  5719.100  0.500  2.939527  116.201  60.4993  3.199853
  5719.695  5719.700  0.500  2.939821  116.187  60.4933  3.198593
  5720.295  5720.300  0.500  2.940814  116.2  60.5045  3.196014
  5720.897  5720.900  0.500  2.941643  116.171  60.5686  3.196746
  5721.498  5721.500  0.500  2.942043  116.203  60.6006  3.197156
  5722.093  5722.100  0.500  2.942054  116.218  60.5819  3.196133
  5722.699  5722.700  0.500  2.942684  116.207  60.6312  3.196723
  5723.295  5723.300  0.500  2.944637  116.173  60.6885  3.193498
  5723.898  5723.900  0.500  2.947316  116.206  60.698  3.185455
  5724.495  5724.500  0.500  2.951465  116.199  60.7324  3.174063
  5725.094  5725.100  0.500  2.956964  116.229  60.7739  3.158816
  5725.701  5725.700  0.500  2.965042  116.194  60.766  3.132990
  5726.299  5726.300  0.500  2.975135  116.214  60.8097  3.103761
  5726.896  5726.900  0.500  2.984737  116.22  60.8551  3.076395
  5727.495  5727.500  0.500  2.992330  116.218  60.8213  3.051428
  5728.100  5728.100  0.500  2.996740  116.187  60.8537  3.039619
  5728.701  5728.700  0.500  3.000369  116.225  60.8855  3.030193
  5729.299  5729.300  0.500  3.004638  116.203  60.922  3.019092
  5729.901  5729.900  0.500  3.009146  116.225  60.9696  3.007862
  5730.505  5730.500  0.500  3.012893  116.211  60.9626  2.996269
  5731.098  5731.100  0.500  3.015731  116.253  60.9891  2.989078
  5731.696  5731.700  0.500  3.016283  116.228  61.049  2.990363
  5732.299  5732.300  0.500  3.014452  116.265  61.058  2.996282
  5732.903  5732.900  0.500  3.009734  116.259  61.1145  3.013237
  5733.501  5733.500  0.500  3.004465  116.237  61.1071  3.028791
  5734.100  5734.100  0.500  2.999659  116.258  61.1636  3.046197
  5734.704  5734.700  0.500  2.996451  116.252  61.1339  3.054499
  5735.305  5735.300  0.500  2.995266  116.255  61.1699  3.059918
  5735.900  5735.900  0.500  2.995778  116.255  61.1912  3.059422
  5736.500  5736.500  0.500  2.997413  116.265  61.2445  3.057081
  5737.103  5737.100  0.500  2.999381  116.265  61.2574  3.051715
  5737.704  5737.700  0.500  3.000750  116.247  61.308  3.050054
  5738.300  5738.300  0.500  3.001170  116.248  61.3167  3.049208
  5738.902  5738.900  0.500  2.999917  116.277  61.3398  3.054184
  5739.505  5739.500  0.500  2.997616  116.268  61.3836  3.063402
  5740.106  5740.100  0.500  2.994250  116.285  61.4108  3.075094
  5740.701  5740.700  0.500  2.989831  116.286  61.4522  3.090794
  5741.305  5741.300  0.500  2.984312  116.259  61.4484  3.107708
  5741.907  5741.900  0.500  2.977887  116.258  61.4853  3.129616
  5742.508  5742.500  0.500  2.971140  116.293  61.5512  3.154181
  5743.103  5743.100  0.500  2.965624  116.318  61.571  3.172648
  5743.701  5743.700  0.500  2.960740  116.315  61.5915  3.189246
  5744.306  5744.300  0.500  2.957028  116.296  61.6011  3.201601
  5744.904  5744.900  0.500  2.953614  116.3  61.6103  3.213031
  5745.504  5745.500  0.500  2.950837  116.74  61.8529  3.234652
  5746.097  5746.100  0.500  2.948594  116.804  61.9006  3.244417
  5746.699  5746.700  0.500  2.946742  116.797  61.9576  3.253423
  5747.303  5747.300  0.500  2.944723  116.793  61.9865  3.261518
  5747.898  5747.900  0.500  2.943017  116.785  62.0362  3.269706
  5748.400  5748.400  0.500  2.941855  116.836  62.0519  3.274338
  5750.402  5750.390  0.500  2.936779  116.85  62.1252  3.294890
  5752.479  5752.460  0.500  2.933427  116.825  62.2021  3.310043
  5754.595  5754.600  0.500  2.931796  116.835  62.3034  3.320847
  5756.821  5756.820  0.500  2.929562  116.829  62.3696  3.331815
  5759.113  5759.110  0.500  2.927661  116.815  62.4892  3.344555
  5761.483  5761.480  0.500  2.926604  116.816  62.5872  3.353340
  5763.933  5763.930  0.500  2.924884  116.77  62.6807  3.364129
  5766.452  5766.450  0.500  2.923942  116.814  62.8203  3.374802
  5769.053  5769.050  0.500  2.922054  116.832  62.9367  3.387444
  5771.737  5771.730  0.500  2.918081  116.835  63.0315  3.406048
  5774.489  5774.480  0.500  2.913856  116.8  63.1565  3.427255
  5777.315  5777.310  0.500  2.908736  116.797  63.2676  3.450907
  5780.215  5780.210  0.500  2.902501  116.763  63.3927  3.479361
  5783.196  5783.190  0.500  2.896478  116.698  63.4553  3.503832
  5786.259  5786.250  0.500  2.890356  116.733  63.6097  3.533929
  5789.386  5789.380  0.500  2.885037  116.761  63.7564  3.560971
  5792.597  5792.590  0.500  2.880280  116.722  63.822  3.581631
  5795.890  5795.880  0.500  2.875187  116.682  63.9798  3.608816
  5799.248  5799.240  0.500  2.869765  116.707  64.1486  3.638012
  5802.691  5802.680  0.500  2.864572  116.693  64.2816  3.664536
  5806.198  5806.190  0.500  2.860070  116.669  64.3925  3.687424
  5809.786  5809.780  0.500  2.855773  116.614  64.5274  3.711055
  5813.459  5813.450  0.500  2.851690  116.57  64.6849  3.735335
  5817.198  5817.190  0.500  2.847329  116.49  64.7362  3.754639
  5821.017  5821.010  0.500  2.842627  116.414  64.9042  3.782121
  5824.921  5824.910  0.500  2.837887  116.366  65.037  3.807868
  5828.889  5828.880  0.500  2.832694  116.277  65.1667  3.835327
  5832.931  5832.920  0.500  2.826642  116.23  65.3092  3.867045
  5837.057  5837.050  0.500  2.820280  116.079  65.366  3.895112
  5841.260  5841.250  0.500  2.814014  116.03  65.5313  3.929507
  5845.534  5845.520  0.500  2.807127  115.845  65.6239  3.962254
  5849.890  5849.880  0.500  2.800658  115.691  65.7089  3.993132
  5854.311  5854.300  0.500  2.794155  115.49  65.7675  4.022770
  5858.821  5858.810  0.500  2.787794  115.22  65.8117  4.051162
  5863.397  5863.390  0.500  2.781458  114.928  65.8255  4.077770
  5868.056  5868.050  0.500  2.774999  114.045  65.5294  4.085728
  5872.789  5872.780  0.500  2.768230  100.947  58.1702  3.651518
  5877.596  5877.590  0.500  2.762355  116.104  67.1238  4.238391
  5882.479  5882.470  0.500  2.755214  115.395  66.8568  4.251782
  5887.446  5887.440  0.500  2.748191  114.997  66.8535  4.281545
  5892.476  5892.470  0.500  2.741539  114.638  66.8775  4.311664
  5897.600  5897.590  0.500  2.735147  114.281  66.8993  4.340726
  5902.785  5902.780  0.500  2.728909  113.892  66.8551  4.365000
  5908.052  5908.050  0.500  2.722103  113.326  66.7126  4.385445
  5913.394  5913.390  0.500  2.714599  111.95  66.1693  4.382492
  5918.817  5918.810  0.500  2.707174  112.999  67.0162  4.471665
  5924.305  5924.300  0.500  2.699022  113.396  67.4547  4.537767
  5929.879  5929.870  0.500  2.691028  112.098  66.8982  4.536449
  5935.543  5935.520  0.500  2.683217  112.961  67.6476  4.623231
  5941.262  5941.250  0.500  2.675582  111.32  66.8962  4.606923
  5947.063  5947.050  0.500  2.668655  110.919  66.8795  4.637791
  5952.943  5952.920  0.500  2.660955  112.402  68.0298  4.754023
  5958.896  5958.870  0.500  2.653562  111.841  67.9265  4.782025
  5964.894  5964.900  0.500  2.645759  111.273  67.8056  4.810911
  5971.030  5971.010  0.500  2.637526  110.773  67.7269  4.845046
  5977.190  5977.190  0.500  2.629216  110.194  67.6261  4.878212
  5983.448  5983.450  0.500  2.621053  109.206  67.2505  4.890872
  5989.778  5989.780  0.500  2.612085  95.0178  58.7737  4.312893
  5996.182  5996.190  0.500  2.605396  110.393  68.4775  5.058697
  6002.661  6002.670  0.500  2.597800  109.377  68.1047  5.069523
  6009.226  6009.240  0.500  2.589784  108.765  67.978  5.100809
  6015.864  6015.870  0.500  2.581077  108.158  67.8602  5.136507
  6022.582  6022.590  0.500  2.572181  107.536  67.725  5.172079
  6029.370  6029.380  0.500  2.563371  106.934  67.6129  5.209212
  6036.266  6036.250  0.500  2.554205  106.237  67.4462  5.244212
  6043.186  6043.190  0.500  2.545254  105.546  67.2428  5.275413
  6050.221  6050.210  0.500  2.536972  104.798  67.0504  5.304060
  6057.285  6057.300  0.500  2.528414  103.837  66.6975  5.321496
  6064.466  6064.480  0.500  2.519945  102.85  66.3265  5.336900
  6071.723  6071.720  0.500  2.511112  102.017  66.0721  5.363595
  6079.039  6079.050  0.500  2.502259  101.421  65.9286  5.399539
  6086.438  6086.450  0.500  2.492931  100.447  65.5791  5.421246
  6093.902  6093.920  0.500  2.483522  99.4267  65.1269  5.434763
  6101.466  6101.480  0.500  2.474131  98.3382  64.7085  5.450796
  6109.100  6109.110  0.500  2.464877  97.1066  64.1615  5.454970
  6116.795  6116.810  0.500  2.456195  95.8772  63.6073  5.455008
  6124.577  6124.590  0.500  2.447176  94.5352  62.9625  5.448627
  6132.464  6132.450  0.500  2.437801  93.148  62.2979  5.441892
  6140.367  6140.380  0.500  2.427997  91.5802  61.5258  5.427395