File: xdidata/Data/Ce/Ce-L3-Ce0.67TiO3.xdi
# XDI/1.0 BlueSky/1.10.0 BMM/2023-1.0-py310-tiled
# Beamline.name: BMM (06BM) -- Beamline for Materials Measurement (NIST)
# Beamline.xray_source: NSLS-II three-pole wiggler
# Beamline.collimation: paraboloid mirror, 5 nm Rh on 30 nm Pt
# Beamline.focusing: not in use
# Beamline.harmonic_rejection: flat mirror, Si stripe, pitch = 7.0 mrad relative to beam
# Beamline.software: Bluesky 1.10.0, Ophyd 1.7.0, DataBroker 2.0.0b13, Python 3.10.8, 2023-1.0-py310-tiled
# Detector.I0: 10 cm N2
# Detector.I1: 25 cm N2
# Detector.I2: 25 cm N2
# Detector.fluorescence: SII Vortex ME4 (4-element silicon drift)
# Detector.deadtime_correction: Xspress3
# Element.symbol: Ce
# Element.edge: L3
# Element.reference: Ce
# Element.reference_material: CeO2
# Facility.name: NSLS-II
# Facility.energy: 3.0
# Facility.current: 400.6
# Facility.mode: top-off
# Facility.GUP: 123456
# Facility.SAF: 301027
# Facility.cycle: 2023-2
# Mono.name: Si(111)
# Mono.d_spacing: 3.13519
# Mono.encoder_resolution: 0.0000050 deg/ct
# Mono.angle_offset: 16.0754 deg
# Mono.scan_mode: pseudo channel cut
# Mono.scan_type: step
# Mono.direction: forward in energy
# Sample.name: Ce0.67TiO3
# Sample.prep: Powder in PEG pellet
# Sample.x: 142.329 mm
# Sample.y: 114.126 mm
# Sample.SDD_position: 45.000 mm
# Scan.experimenters: Bruce Ravel
# Scan.edge_energy: 5723.4
# Scan.start_time: 2023-05-06T10:47:23
# Scan.end_time: 2023-05-06T10:53:06
# Scan.transient_id: 74737
# Scan.uid: 3d018239-c5a4-4d74-8871-dddef20aeb52
# Scan.plot_hint: (Ce1+Ce2+Ce3+Ce4)/I0  --  ($8+$9+$10+$11)/$5
# Column.1: energy eV
# Column.2: requested_energy eV
# Column.3: measurement_time seconds
# Column.4: xmu
# Column.5: I0 nA
# Column.6: It nA
# Column.7: Ir nA
# Column.8: Ce1
# Column.9: Ce2
# Column.10: Ce3
# Column.11: Ce4
# ///////////
# sample courtesy Martin Stennett, University of Sheffield
# -----------
# energy  requested_energy  measurement_time  xmu  I0  It  Ir  Ce1  Ce2  Ce3  Ce4
  5523.403  5523.400  0.500  148.164  109.05  1.198621  0.088680  4029.68  4139.49  3983.55  4004.53
  5553.415  5553.400  0.500  151.533  110.133  1.307283  0.100829  4125.95  4369.61  4215.69  3977.56
  5583.411  5583.400  0.500  154.8  110.996  1.421176  0.114266  4258.05  4514.74  4244.76  4164.68
  5613.403  5613.400  0.500  158.015  111.563  1.537419  0.128537  4374.2  4544.79  4409.85  4299.79
  5643.388  5643.400  0.500  162.079  112.004  1.660933  0.144259  4471.82  4621.86  4628.01  4431.89
  5673.397  5673.400  0.500  170.438  112.238  1.785661  0.160949  4745.38  4968.07  4759.11  4657.03
  5695.393  5695.400  0.500  180.547  112.273  1.872624  0.173623  4961.83  5280.24  5066.31  4962.22
  5701.389  5701.400  0.500  190.691  112.28  1.892558  0.176634  5390.76  5531.37  5270.41  5218.35
  5707.390  5707.400  0.500  204.453  112.291  1.904566  0.178877  5713.33  5974.65  5644.65  5625.6
  5713.401  5713.400  0.500  240.313  112.294  1.893367  0.178969  6730.28  7168.23  6635.16  6452.02
  5714.890  5714.900  0.500  259.219  112.341  1.882819  0.178177  7137.45  7629.48  7259.52  7094.4
  5716.390  5716.400  0.500  287.675  112.346  1.855682  0.175644  7919.32  8510.98  7987.03  7901.88
  5717.890  5717.900  0.500  332.988  112.342  1.806453  0.171027  9247.22  9766.74  9311.82  9082.62
  5719.393  5719.400  0.500  404.763  112.359  1.738489  0.164430  11285.1  11676.9  11517.1  10999.8
  5720.893  5720.900  0.500  502.783  112.352  1.639561  0.154675  13944.8  14689.9  14045  13808.8
  5722.393  5722.400  0.500  691.629  112.344  1.445626  0.136376  19379  19880  19263.3  19178.1
  5723.894  5723.900  0.500  1043.1  112.333  1.131889  0.106217  29257.9  30249  29216.3  28451.5
  5725.394  5725.400  0.500  1419.43  112.316  0.840285  0.077477  39189.1  40988.9  40220.9  39025.4
  5726.895  5726.900  0.500  1521.2  112.329  0.764666  0.068851  42199.3  44251.6  42797  41626.5
  5728.398  5728.400  0.500  1339.68  112.302  0.882306  0.078405  37055.1  38791.8  37777.4  36824.3
  5729.900  5729.900  0.500  1149.38  112.305  1.058413  0.093299  32589.1  34592.7  31211.4  30687.8
  5731.398  5731.400  0.500  928.281  112.281  1.217743  0.106645  25704.2  26858.2  26099.6  25566.1
  5732.905  5732.900  0.500  790.355  112.253  1.351332  0.119429  21812.2  23049.7  22192.8  21665.3
  5734.405  5734.400  0.500  713.605  112.236  1.430487  0.127788  19986.1  20518.5  19939.9  19647.5
  5735.902  5735.900  0.500  714.599  112.232  1.446303  0.129010  19893  20783.7  20072.9  19451.4
  5737.400  5737.400  0.500  734.543  112.201  1.429570  0.127021  20204.1  21497.3  20807.5  19907.8
  5738.903  5738.900  0.500  752.628  112.159  1.415828  0.125921  20670.2  21825.5  21180  20738.5
  5740.403  5740.400  0.500  763.087  112.162  1.410889  0.126678  21267.8  21997.8  21361.2  20962.7
  5741.903  5741.900  0.500  766.767  112.158  1.411712  0.128439  21271  22074.9  21541.2  21111.8
  5743.403  5743.400  0.500  770.385  112.111  1.417624  0.130701  21322.9  22206.1  21651.5  21187.9
  5744.900  5744.900  0.500  767.094  112.122  1.425279  0.132335  21202.1  22193  21632.4  20980.8
  5746.405  5746.400  0.500  764.479  112.478  1.435906  0.134048  21465.3  22186.1  21406.1  20929.7
  5747.904  5747.900  0.500  770.698  112.412  1.435868  0.134567  21615.5  22329.1  21684.4  21006.8
  5750.401  5750.390  0.500  793.53  112.361  1.422915  0.133943  21829.2  22956.7  22306.9  22068.8
  5753.515  5753.520  0.500  834.252  112.346  1.394594  0.131802  23016.4  24325.8  23281.9  23100.7
  5756.819  5756.820  0.500  858.073  112.292  1.379218  0.130558  23657.5  25046.9  24026.7  23623.5
  5760.298  5760.290  0.500  854.525  112.242  1.394834  0.132283  23788  24721.5  23785.5  23618.3
  5763.935  5763.930  0.500  828.19  112.141  1.432027  0.135860  23104.8  24024.8  23273  22471.4
  5767.747  5767.740  0.500  804.877  112.164  1.468764  0.139363  22484.3  23446.1  22365  21982.8
  5771.736  5771.730  0.500  794.378  112.108  1.496783  0.142790  21972.9  22997.8  22301  21784.6
  5775.901  5775.890  0.500  789.041  112.068  1.521042  0.145987  21696.9  23014.8  21959.9  21754.7
  5780.218  5780.210  0.500  780.496  112.016  1.539224  0.148748  21803.8  22589.6  21683.7  21351.3
  5784.718  5784.710  0.500  782.258  111.981  1.556102  0.151719  21643  22839.9  21929.8  21185.2
  5789.386  5789.380  0.500  801.05  111.892  1.555249  0.152497  22105.3  23369.3  22323.3  21832.8
  5794.237  5794.230  0.500  839.443  111.813  1.538465  0.151508  23315  24375.2  23322.3  22847.8
  5799.246  5799.240  0.500  859.467  111.778  1.533328  0.152215  23829.4  24997.9  23851.9  23390.4
  5804.438  5804.430  0.500  851.256  111.672  1.559316  0.155772  23221.9  24600.4  23891.7  23347.2
  5809.789  5809.780  0.500  832.172  111.582  1.598838  0.160065  22952.7  24007  23409.5  22486.6
  5815.315  5815.310  0.500  830.145  111.488  1.627714  0.164084  23018.4  23837.7  22964  22730.7
  5821.018  5821.010  0.500  827.034  111.321  1.648271  0.167054  22564.3  24180.2  22790  22531.6
  5826.888  5826.880  0.500  835.635  111.195  1.664341  0.169631  23025.4  23882.8  23204.2  22805.8
  5832.928  5832.920  0.500  845.268  111.001  1.678885  0.172426  23032.1  24268.3  23312.3  23213.1
  5839.145  5839.140  0.500  850.616  110.806  1.686414  0.174340  23380.8  24536.5  23308.5  23027.1
  5845.522  5845.520  0.500  861.88  110.587  1.697868  0.177033  23298.3  24695.9  23889.1  23429.6
  5852.084  5852.080  0.500  876.84  110.27  1.712824  0.180034  23997.8  24911.8  23985.1  23794.8
  5858.817  5858.810  0.500  872.102  109.874  1.736397  0.183817  23775.3  24571.7  24135.1  23339.4
  5865.717  5865.710  0.500  859.652  109.227  1.770949  0.189086  23206.9  24328.4  23402.5  22959
  5872.786  5872.780  0.500  874.718  87.7082  1.445741  0.155696  19265.6  19870.8  18862.8  18720.7
  5880.026  5880.020  0.500  878.447  109.961  1.827272  0.197786  23929.5  25052.3  23954.3  23659
  5887.447  5887.440  0.500  887.662  109.248  1.832105  0.200185  23898  25275.3  24145.4  23656.9
  5895.028  5895.020  0.500  895.877  108.66  1.855138  0.204318  23934.1  25337.4  24331.7  23743.1
  5902.789  5902.780  0.500  891.37  107.946  1.876428  0.208175  23929.7  24862  23919.3  23508.7
  5910.723  5910.710  0.500  891.264  106.767  1.893320  0.211665  23379.6  24814.8  23969  22994.2
  5918.830  5918.810  0.500  893.328  106.674  1.931700  0.218090  23502.7  24680.6  23728.8  23382.4
  5927.094  5927.080  0.500  891.982  106.067  1.950013  0.222521  23720.7  24434.4  23323.5  23131.2
  5935.541  5935.520  0.500  908.886  106.032  1.972974  0.227187  23656.7  25019.1  24146.4  23548.8
  5944.128  5944.140  0.500  927.27  98.4933  1.857845  0.215890  22503.1  23669.2  22688.4  22469.2
  5952.924  5952.920  0.500  927.991  104.83  2.014369  0.235943  23974  25279.4  24067.3  23961.1
  5961.875  5961.880  0.500  923.86  103.535  2.028905  0.239840  23703.1  24841.8  23916  23190.4
  5971.000  5971.010  0.500  929.757  102.271  2.046321  0.244377  23569.9  24568.7  23610.8  23337.5
  5980.304  5980.310  0.500  932.01  100.84  2.058761  0.248488  23233.1  24426.4  23250.3  23074.1
  5989.770  5989.780  0.500  956.123  83.0736  1.727064  0.210926  19720.8  20712.7  19706.7  19288.3
  5999.411  5999.420  0.500  948.522  99.596  2.103260  0.258741  23560.2  24380.3  23615.5  22912.9
  6009.226  6009.240  0.500  952.427  98.0804  2.110781  0.262393  23158.7  24029.8  23027.9  23198
  6019.217  6019.220  0.500  963.164  96.6536  2.120649  0.266098  23250  23806.7  23212  22824.6
  6029.372  6029.380  0.500  967.651  95.6297  2.141675  0.271944  22833.9  24278  22990.9  22433.3
  6039.700  6039.710  0.500  978.012  94.2385  2.154744  0.276520  22878.7  23953.6  22854.7  22479.3
  6050.221  6050.210  0.500  973.28  92.8268  2.165531  0.280781  22390.5  23399.1  22309  22247.9
  6060.867  6060.880  0.500  984.781  91.1616  2.169805  0.284400  22171.2  23307.7  22423.9  21871.4
  6071.704  6071.720  0.500  989.429  89.7085  2.179520  0.288611  22040.6  22850.4  22219.9  21649.3
  6082.726  6082.740  0.500  992.775  88.2573  2.190537  0.293119  21624.3  22821.2  21754.2  21419.9
  6093.910  6093.920  0.500  997.789  86.79  2.198619  0.297720  21368  22556.7  21493.9  21179.5
  6105.292  6105.280  0.500  1007.04  85.2334  2.205813  0.302092  21316.8  22259.6  21262.5  20994.3
  6116.792  6116.810  0.500  1003.13  83.6414  2.213521  0.306442  20865.1  21770  20848.1  20419.7
  6128.495  6128.510  0.500  1018.8  81.9501  2.216649  0.310517  20818.7  21556.8  20729.8  20385.5
  6140.370  6140.380  0.500  1023.31  80.1581  2.215198  0.313641  20319  21148.4  20340.5  20218.4
  6152.415  6152.430  0.500  1020.43  78.0486  2.193628  0.313906  19776.7  20655.9  19834.1  19376.7