File: xdidata/Pt/Pt-L1-PlatinumFoil.xdi
# XDI/1.0 BlueSky/1.10.0 BMM/2023-1.0-py310-tiled
# Beamline.name: BMM (06BM) -- Beamline for Materials Measurement (NIST)
# Beamline.xray_source: NSLS-II three-pole wiggler
# Beamline.collimation: paraboloid mirror, 5 nm Rh on 30 nm Pt
# Beamline.focusing: not in use
# Beamline.harmonic_rejection: flat mirror, Pt stripe, pitch = 7.0 mrad relative to beam
# Beamline.software: Bluesky 1.10.0, Ophyd 1.7.0, DataBroker 2.0.0b13, Python 3.10.8, 2023-1.0-py310-tiled
# Detector.I0: 10 cm N2
# Detector.I1: 25 cm N2
# Detector.I2: 25 cm N2
# Element.symbol: Pt
# Element.edge: L1
# Element.reference: Pt
# Element.reference_material: Pt foil
# Facility.name: NSLS-II
# Facility.energy: 3.0
# Facility.current: 399.9
# Facility.mode: top-off
# Facility.GUP: 301027
# Facility.SAF: 310583
# Facility.cycle: 2023-2
# Mono.name: Si(111)
# Mono.d_spacing: 3.13519
# Mono.encoder_resolution: 0.0000050 deg/ct
# Mono.angle_offset: 16.0754 deg
# Mono.scan_mode: pseudo channel cut
# Mono.scan_type: step
# Mono.direction: forward in energy
# Sample.name: Pt foil
# Sample.prep: reference foil
# Sample.x: 109.138 mm
# Sample.y: 153.150 mm
# Sample.SDD_position: 205.000 mm
# Scan.experimenters: Bruce Ravel
# Scan.edge_energy: 13880.5
# Scan.start_time: 2023-05-28T21:05:50
# Scan.end_time: 2023-05-28T21:13:22
# Scan.transient_id: 79015
# Scan.uid: 5e37658e-c2b4-4619-a0c6-41da9c60c89c
# Scan.plot_hint: ln(It/Ir)  --  ln($6/$7)
# Column.1: energy eV
# Column.2: requested_energy eV
# Column.3: measurement_time seconds
# Column.4: xmu
# Column.5: I0 nA
# Column.6: It nA
# Column.7: Ir nA
# ///////////
# Welcome to BMM
# -----------
# energy  requested_energy  measurement_time  xmu  I0  It  Ir
  13680.468  13680.500  0.500  1.507917  39.664  70.4474  15.595
  13710.531  13710.500  0.500  1.501494  39.4025  70.0122  15.5985
  13740.487  13740.500  0.500  1.487290  39.1089  69.5401  15.715
  13770.494  13770.500  0.500  1.485496  38.8196  69.0635  15.6353
  13800.467  13800.500  0.500  1.478830  38.5275  68.5863  15.6311
  13830.489  13830.500  0.500  1.469097  38.2589  68.1569  15.6852
  13852.423  13852.500  0.500  1.466469  38.0303  67.7706  15.6373
  13858.419  13858.500  0.500  1.467729  37.984  67.7004  15.6014
  13864.412  13864.500  0.500  1.469884  37.9132  67.5809  15.5404
  13870.452  13870.500  0.500  1.474802  37.8304  67.448  15.4337
  13871.326  13871.400  0.500  1.475814  37.8124  67.4111  15.4097
  13872.251  13872.300  0.500  1.477128  37.7888  67.3768  15.3816
  13873.133  13873.200  0.500  1.478671  37.7617  67.3214  15.3453
  13874.050  13874.100  0.500  1.480461  37.7404  67.291  15.3109
  13874.966  13875.000  0.500  1.482602  37.7316  67.2744  15.2744
  13875.841  13875.900  0.500  1.485084  37.7227  67.2663  15.2347
  13876.766  13876.800  0.500  1.487977  37.7087  67.2313  15.1828
  13877.650  13877.700  0.500  1.491828  37.6869  67.197  15.1167
  13878.542  13878.600  0.500  1.495975  37.6633  67.1543  15.0446
  13879.484  13879.500  0.500  1.501421  37.7067  67.2311  14.98
  13880.351  13880.400  0.500  1.507397  37.7178  67.2551  14.8961
  13881.268  13881.300  0.500  1.514179  37.6872  67.2041  14.7841
  13882.194  13882.200  0.500  1.521651  37.6776  67.1909  14.6712
  13883.078  13883.100  0.500  1.529288  37.6709  67.1745  14.556
  13884.004  13884.000  0.500  1.537504  37.6476  67.1336  14.4282
  13884.897  13884.900  0.500  1.545501  37.6214  67.0861  14.3031
  13885.798  13885.800  0.500  1.553733  37.5937  67.0385  14.1758
  13886.708  13886.700  0.500  1.562105  37.5665  66.9903  14.0475
  13887.584  13887.600  0.500  1.570526  37.5428  66.9531  13.922
  13888.519  13888.500  0.500  1.579701  37.5155  66.905  13.7849
  13889.396  13889.400  0.500  1.588684  37.4898  66.8578  13.652
  13890.281  13890.300  0.500  1.598342  37.4657  66.8192  13.5129
  13891.208  13891.200  0.500  1.608575  37.4395  66.7755  13.3666
  13892.076  13892.100  0.500  1.618477  37.4102  66.7313  13.2262
  13893.004  13893.000  0.500  1.628206  37.3857  66.6819  13.0884
  13893.898  13893.900  0.500  1.636683  37.3643  66.6446  12.9707
  13894.766  13894.800  0.500  1.643548  37.3386  66.6018  12.8737
  13895.677  13895.700  0.500  1.648744  37.3053  66.5448  12.796
  13896.597  13896.600  0.500  1.652417  37.2844  66.5031  12.7411
  13897.491  13897.500  0.500  1.654194  37.2964  66.5257  12.7228
  13898.377  13898.400  0.500  1.654648  37.303  66.5471  12.7211
  13899.322  13899.300  0.500  1.654109  37.3032  66.5407  12.7267
  13900.217  13900.200  0.500  1.652749  37.2943  66.5284  12.7417
  13901.103  13901.100  0.500  1.650399  37.287  66.5118  12.7685
  13902.006  13902.000  0.500  1.647397  37.2703  66.4925  12.8032
  13902.901  13902.900  0.500  1.643946  37.2477  66.4527  12.8397
  13903.822  13903.800  0.500  1.640053  37.2431  66.4419  12.8877
  13904.700  13904.700  0.500  1.636416  37.261  66.4746  12.9411
  13905.494  13905.500  0.500  1.633505  37.2666  66.4884  12.9815
  13908.494  13908.510  0.500  1.626296  37.2209  66.4053  13.059
  13911.723  13911.700  0.500  1.625511  37.2046  66.3812  13.0646
  13915.080  13915.060  0.500  1.630978  37.1826  66.3434  12.9859
  13918.608  13918.580  0.500  1.640125  37.1018  66.2063  12.8411
  13922.291  13922.280  0.500  1.647663  37.0936  66.1981  12.7431
  13926.170  13926.150  0.500  1.645743  37.0672  66.1477  12.7579
  13930.221  13930.200  0.500  1.634021  37.0476  66.1257  12.904
  13934.427  13934.410  0.500  1.624778  37.0277  66.0949  13.0178
  13938.806  13938.790  0.500  1.622332  36.9877  66.0337  13.0375
  13943.323  13943.350  0.500  1.621303  36.9428  65.9576  13.0359
  13948.090  13948.080  0.500  1.620762  36.8986  65.8762  13.0269
  13953.013  13952.980  0.500  1.620911  36.8541  65.7985  13.0096
  13958.050  13958.050  0.500  1.622241  36.7901  65.6997  12.9728
  13963.321  13963.290  0.500  1.624531  36.7177  65.5827  12.9201
  13968.715  13968.710  0.500  1.624440  36.5969  65.3669  12.8787
  13974.301  13974.290  0.500  1.619903  34.3654  61.3892  12.15
  13980.062  13980.050  0.500  1.614810  36.6616  65.4982  13.0295
  13985.974  13985.980  0.500  1.612041  36.6048  65.3956  13.0451
  13992.104  13992.080  0.500  1.611704  36.5428  65.2926  13.029
  13998.334  13998.350  0.500  1.610961  36.4762  65.192  13.0185
  14004.818  14004.790  0.500  1.608073  36.4196  65.0947  13.0367
  14011.386  14011.400  0.500  1.605418  36.3606  64.9971  13.0518
  14018.217  14018.190  0.500  1.605661  36.293  64.8869  13.0265
  14025.158  14025.150  0.500  1.608318  36.2217  64.7654  12.9676
  14032.295  14032.270  0.500  1.608207  36.1526  64.6491  12.9457
  14039.586  14039.570  0.500  1.604541  36.2  64.741  13.0118
  14047.074  14047.050  0.500  1.599832  36.1458  64.6597  13.0568
  14054.700  14054.690  0.500  1.594551  36.0763  64.5376  13.1011
  14062.507  14062.500  0.500  1.591569  35.9764  64.3709  13.1063
  14070.522  14070.490  0.500  1.587129  35.6171  63.7328  13.0341
  14078.676  14078.650  0.500  1.581887  35.9449  64.3357  13.2266
  14086.978  14086.970  0.500  1.582226  35.8489  64.1711  13.1883
  14095.490  14095.470  0.500  1.583436  35.7563  64.0124  13.1397
  14104.186  14104.150  0.500  1.583106  35.6324  63.799  13.1002
  14112.989  14112.990  0.500  1.581932  35.5073  63.5903  13.0727
  14122.003  14122.000  0.500  1.578736  34.6394  62.0425  12.7954
  14131.212  14131.190  0.500  1.572787  35.3718  63.3633  13.1457
  14140.556  14140.550  0.500  1.568167  35.3672  63.379  13.2099
  14150.078  14150.070  0.500  1.564629  35.2836  63.2274  13.225
  14159.806  14159.770  0.500  1.564307  35.1104  62.9357  13.1682
  14169.644  14169.650  0.500  1.564373  34.8225  62.4171  13.0589
  14179.707  14179.690  0.500  1.561172  35.067  62.8738  13.1966
  14189.916  14189.900  0.500  1.558948  34.9766  62.7273  13.1951
  14200.290  14200.290  0.500  1.555934  34.8825  62.5646  13.2007
  14210.821  14210.850  0.500  1.549775  34.7848  62.401  13.2475
  14221.605  14221.580  0.500  1.543004  34.6914  62.2414  13.3034
  14232.513  14232.480  0.500  1.539841  34.586  62.0784  13.3106
  14243.580  14243.550  0.500  1.540187  34.4857  61.8995  13.2676
  14254.823  14254.790  0.500  1.538391  34.3744  61.7139  13.2516
  14266.218  14266.210  0.500  1.534995  34.1512  61.3297  13.2139
  14277.819  14277.790  0.500  1.532896  34.2444  61.501  13.2787
  14289.590  14289.550  0.500  1.530265  34.1265  61.3114  13.2726
  14301.498  14301.480  0.500  1.526267  33.9871  61.068  13.2729
  14313.613  14313.580  0.500  1.521193  33.9042  60.9338  13.3111
  14325.875  14325.850  0.500  1.516400  33.7952  60.7465  13.3339
  14338.328  14338.290  0.500  1.513981  33.7041  60.5898  13.3317
  14350.930  14350.910  0.500  1.512012  33.5932  60.4094  13.3182
  14363.725  14363.690  0.500  1.508797  33.4805  60.229  13.3212
  14376.688  14376.650  0.500  1.505052  33.3175  59.9341  13.3057
  14389.820  14389.780  0.500  1.500885  33.2668  59.8669  13.3463
  14403.111  14403.080  0.500  1.496342  33.15  59.6641  13.3616
  14416.573  14416.550  0.500  1.492070  33.0432  59.4934  13.3805
  14430.233  14430.200  0.500  1.488733  32.9257  59.2866  13.3785
  14444.048  14444.010  0.500  1.486091  32.7151  58.9227  13.3316
  14458.062  14458.000  0.500  1.483430  32.7073  58.9195  13.3664
  14472.223  14472.160  0.500  1.480491  32.5967  58.7295  13.3625
  14486.522  14486.490  0.500  1.476610  32.4737  58.5263  13.368
  14501.080  14500.990  0.500  1.472268  32.3613  58.3374  13.3829
  14515.676  14515.660  0.500  1.467297  32.2016  58.0666  13.3871
  14530.579  14530.500  0.500  1.462308  32.1266  57.9438  13.4256
  14545.559  14545.520  0.500  1.458654  32.009  57.7471  13.4291
  14560.719  14560.700  0.500  1.454920  31.8842  57.5306  13.4288
  14576.069  14576.060  0.500  1.451089  31.7618  57.327  13.4326
  14591.609  14591.590  0.500  1.448413  31.6288  57.0964  13.4144
  14607.332  14607.290  0.500  1.445468  31.5134  56.9024  13.4082
  14623.202  14623.160  0.500  1.441100  31.3827  56.6826  13.4149
  14639.247  14639.210  0.500  1.435823  31.2558  56.4644  13.434
  14655.469  14655.420  0.500  1.431017  31.13  56.2563  13.4489
  14671.840  14671.810  0.500  1.426788  31.0048  56.0433  13.4548
  14688.417  14688.370  0.500  1.422880  30.867  55.8067  13.4505
  14705.137  14705.100  0.500  1.418955  30.7809  55.6567  13.4671
  14722.047  14722.000  0.500  1.414832  30.7123  55.5566  13.4984
  14733.383  14733.360  0.500  1.412415  30.6035  55.3671  13.4849