File: xdidata/Pt/Pt-L3-PotassiumHexaChloroPlatinate.xdi
# XDI/1.0 BlueSky/1.10.0 BMM/2023-1.0-py310-tiled
# Beamline.name: BMM (06BM) -- Beamline for Materials Measurement (NIST)
# Beamline.xray_source: NSLS-II three-pole wiggler
# Beamline.collimation: paraboloid mirror, 5 nm Rh on 30 nm Pt
# Beamline.focusing: not in use
# Beamline.harmonic_rejection: flat mirror, Pt stripe, pitch = 7.0 mrad relative to beam
# Beamline.software: Bluesky 1.10.0, Ophyd 1.7.0, DataBroker 2.0.0b13, Python 3.10.8, 2023-1.0-py310-tiled
# Detector.I0: 10 cm N2
# Detector.I1: 25 cm N2
# Detector.I2: 25 cm N2
# Element.symbol: Pt
# Element.edge: L3
# Element.reference: Pt
# Element.reference_material: Pt foil
# Facility.name: NSLS-II
# Facility.energy: 3.0
# Facility.current: 400.5
# Facility.mode: top-off
# Facility.GUP: 301027
# Facility.SAF: 310583
# Facility.cycle: 2023-2
# Mono.name: Si(111)
# Mono.d_spacing: 3.13519
# Mono.encoder_resolution: 0.0000050 deg/ct
# Mono.angle_offset: 16.0754 deg
# Mono.scan_mode: pseudo channel cut
# Mono.scan_type: step
# Mono.direction: forward in energy
# Sample.name: K2PtCl6
# Sample.prep: powder on tape
# Sample.x: 119.711 mm
# Sample.y: 114.376 mm
# Sample.SDD_position: 205.000 mm
# Scan.experimenters: Bruce Ravel
# Scan.edge_energy: 11563.8
# Scan.start_time: 2023-06-27T17:13:42
# Scan.end_time: 2023-06-27T17:21:39
# Scan.transient_id: 85180
# Scan.uid: 35a171f5-fe3b-4fd7-a273-3c56d153ff6d
# Scan.plot_hint: ln(I0/It)  --  ln($5/$6)
# Column.1: energy eV
# Column.2: requested_energy eV
# Column.3: measurement_time seconds
# Column.4: xmu
# Column.5: I0 nA
# Column.6: It nA
# Column.7: Ir nA
# ///////////
# sample courtesy Simon Bare and Shelly Kelly
# -----------
# energy  requested_energy  measurement_time  xmu  I0  It  Ir
  11363.756  11363.800  0.500  0.452968  71.9631  45.7497  19.0399
  11393.834  11393.800  0.500  0.444726  69.8787  44.7923  18.7649
  11423.870  11423.800  0.500  0.436239  70.7374  45.7291  19.2772
  11453.840  11453.800  0.500  0.428313  70.164  45.7193  19.3926
  11483.849  11483.800  0.500  0.420940  69.7356  45.7765  19.5223
  11513.851  11513.800  0.500  0.414957  69.1774  45.6826  19.5386
  11535.773  11535.800  0.500  0.415334  68.7727  45.3982  19.3158
  11541.765  11541.800  0.500  0.418296  68.6459  45.1805  19.1121
  11547.757  11547.800  0.500  0.425191  68.5006  44.7751  18.7138
  11553.774  11553.800  0.500  0.442931  68.3162  43.8693  17.8035
  11554.650  11554.700  0.500  0.447410  68.2739  43.6463  17.5775
  11555.550  11555.600  0.500  0.453181  68.2336  43.3695  17.2976
  11556.450  11556.500  0.500  0.460173  68.1817  43.0345  16.9562
  11557.362  11557.400  0.500  0.468907  68.122  42.623  16.5402
  11558.274  11558.300  0.500  0.479498  68.0543  42.132  16.0366
  11559.180  11559.200  0.500  0.492936  67.9827  41.5259  15.4201
  11560.098  11560.100  0.500  0.510381  67.8927  40.7537  14.6301
  11560.993  11561.000  0.500  0.533254  67.7649  39.7572  13.6387
  11561.877  11561.900  0.500  0.564092  67.6253  38.4704  12.3727
  11562.789  11562.800  0.500  0.607188  67.4006  36.7253  10.7677
  11563.679  11563.700  0.500  0.667364  67.1492  34.4515  8.893064
  11564.586  11564.600  0.500  0.753225  66.8565  31.4791  6.893382
  11565.482  11565.500  0.500  0.875090  66.5636  27.7454  5.074095
  11566.401  11566.400  0.500  1.051408  66.3807  23.1964  3.633698
  11567.303  11567.300  0.500  1.264942  66.3446  18.7261  2.727250
  11568.193  11568.200  0.500  1.446412  66.3995  15.6313  2.300262
  11569.095  11569.100  0.500  1.481804  66.5051  15.1118  2.347320
  11569.985  11570.000  0.500  1.361342  66.5939  17.0691  2.805250
  11570.894  11570.900  0.500  1.181253  66.6506  20.4547  3.513942
  11571.802  11571.800  0.500  1.022110  66.6941  23.9989  4.261778
  11572.704  11572.700  0.500  0.914907  66.7148  26.7229  4.865899
  11573.607  11573.600  0.500  0.853550  66.7174  28.415  5.282406
  11574.499  11574.500  0.500  0.826863  66.7282  29.1882  5.520833
  11575.384  11575.400  0.500  0.823288  66.7256  29.2916  5.605566
  11576.293  11576.300  0.500  0.832593  66.704  29.0109  5.580672
  11577.196  11577.200  0.500  0.846557  66.6884  28.6019  5.495041
  11578.100  11578.100  0.500  0.857719  66.648  28.2673  5.393678
  11579.009  11579.000  0.500  0.864332  66.6261  28.0718  5.299598
  11579.901  11579.900  0.500  0.868197  66.5993  27.9523  5.217210
  11580.805  11580.800  0.500  0.869223  66.5713  27.9118  5.165926
  11581.686  11581.700  0.500  0.867136  66.5632  27.9667  5.167050
  11582.590  11582.600  0.500  0.861948  66.5504  28.1068  5.221753
  11583.495  11583.500  0.500  0.855016  66.5621  28.3073  5.322161
  11584.399  11584.400  0.500  0.846923  66.594  28.551  5.444393
  11585.310  11585.300  0.500  0.838263  66.6084  28.8055  5.554953
  11586.197  11586.200  0.500  0.829855  66.6087  29.0489  5.635920
  11587.096  11587.100  0.500  0.822744  66.6231  29.2625  5.686873
  11587.983  11588.000  0.500  0.818340  66.6297  29.3946  5.709110
  11588.789  11588.800  0.500  0.816460  66.8234  29.5355  5.726156
  11591.833  11591.810  0.500  0.825366  66.7759  29.2528  5.483223
  11595.007  11595.000  0.500  0.845268  66.6808  28.6355  5.096120
  11598.375  11598.360  0.500  0.866958  66.6969  28.0279  5.098823
  11601.881  11601.880  0.500  0.876933  66.7119  27.756  5.223767
  11605.593  11605.580  0.500  0.885974  66.6657  27.4871  5.243585
  11609.460  11609.450  0.500  0.897064  66.638  27.1727  5.261796
  11613.518  11613.500  0.500  0.918464  66.5468  26.5609  5.040849
  11617.737  11617.710  0.500  0.933168  66.4589  26.1387  4.794508
  11622.088  11622.090  0.500  0.927212  66.3729  26.2608  4.747643
  11626.637  11626.650  0.500  0.895691  66.3443  27.09  4.968045
  11631.366  11631.380  0.500  0.863410  66.3041  27.9619  5.204516
  11636.222  11636.280  0.500  0.849724  66.2479  28.3231  5.324262
  11641.424  11641.350  0.500  0.845542  66.1917  28.4177  5.451216
  11646.572  11646.590  0.500  0.842448  66.1313  28.4798  5.555260
  11651.996  11652.010  0.500  0.841649  65.8693  28.3896  5.554829
  11657.579  11657.590  0.500  0.846798  65.9313  28.2704  5.438178
  11663.345  11663.350  0.500  0.858383  65.7967  27.8877  5.271843
  11669.271  11669.280  0.500  0.876073  65.554  27.2977  5.159583
  11675.369  11675.380  0.500  0.895249  65.646  26.8168  5.097857
  11681.640  11681.650  0.500  0.898116  65.536  26.6952  5.089191
  11688.095  11688.090  0.500  0.876970  65.4389  27.2253  5.156763
  11694.695  11694.700  0.500  0.854086  65.3429  27.8146  5.286740
  11701.505  11701.490  0.500  0.840670  65.2485  28.1496  5.460929
  11708.454  11708.450  0.500  0.835183  65.1569  28.2647  5.579454
  11715.573  11715.570  0.500  0.833633  65.0538  28.2638  5.557216
  11722.886  11722.870  0.500  0.833810  64.9213  28.2012  5.475423
  11730.339  11730.350  0.500  0.837190  64.7904  28.0494  5.403529
  11737.982  11737.990  0.500  0.845054  64.6539  27.7711  5.338949
  11745.816  11745.800  0.500  0.855629  64.492  27.4101  5.284925
  11753.804  11753.790  0.500  0.860931  64.4178  27.2338  5.219229
  11761.960  11761.950  0.500  0.855644  64.2888  27.3233  5.268405
  11770.278  11770.270  0.500  0.844450  63.9628  27.4908  5.420203
  11778.770  11778.770  0.500  0.833932  63.8753  27.7435  5.519298
  11787.445  11787.450  0.500  0.825774  63.9311  27.9952  5.584613
  11796.308  11796.290  0.500  0.819750  63.7912  28.1027  5.598228
  11805.318  11805.300  0.500  0.815674  63.3723  28.0322  5.524135
  11814.506  11814.490  0.500  0.814390  63.4829  28.1172  5.466480
  11823.873  11823.850  0.500  0.816984  63.3452  27.9835  5.456905
  11833.407  11833.370  0.500  0.821868  63.175  27.7723  5.511657
  11843.091  11843.070  0.500  0.824095  63.0715  27.6652  5.589961
  11852.981  11852.950  0.500  0.821426  62.9142  27.6699  5.598307
  11863.003  11862.990  0.500  0.815397  62.5442  27.6735  5.600004
  11873.203  11873.200  0.500  0.808224  62.6057  27.9002  5.673615
  11883.598  11883.590  0.500  0.801348  62.367  27.9855  5.650164
  11894.178  11894.150  0.500  0.795336  62.2563  28.1043  5.631333
  11904.926  11904.880  0.500  0.790641  62.017  28.1281  5.661989
  11915.804  11915.780  0.500  0.787290  61.8417  28.1427  5.769422
  11926.851  11926.850  0.500  0.786273  61.7459  28.1277  5.814524
  11938.130  11938.090  0.500  0.786644  61.5372  28.0222  5.789467
  11949.542  11949.510  0.500  0.786656  61.376  27.9485  5.785369
  11961.126  11961.090  0.500  0.784476  61.1717  27.9162  5.810499
  11972.889  11972.850  0.500  0.780407  61.1716  28.03  5.810229
  11984.781  11984.780  0.500  0.774783  60.965  28.0929  5.822546
  11996.898  11996.880  0.500  0.768981  60.7881  28.1744  5.852970
  12009.147  12009.150  0.500  0.763330  60.5975  28.2452  5.937106
  12021.609  12021.590  0.500  0.758078  60.4054  28.3039  6.037482
  12034.243  12034.210  0.500  0.753978  60.1871  28.3175  6.053847
  12047.005  12046.990  0.500  0.751317  59.2374  27.9449  5.966569
  12059.953  12059.950  0.500  0.749079  59.7735  28.261  6.028006
  12073.113  12073.080  0.500  0.746938  59.5786  28.2292  6.032931
  12086.404  12086.380  0.500  0.743890  59.3646  28.2137  6.048081
  12099.890  12099.850  0.500  0.739905  59.177  28.2368  6.104738
  12113.528  12113.500  0.500  0.735082  58.9704  28.2743  6.161970
  12127.358  12127.310  0.500  0.729815  58.729  28.3073  6.218667
  12141.322  12141.300  0.500  0.724224  58.5374  28.3731  6.266295
  12155.474  12155.460  0.500  0.719094  58.3302  28.4181  6.283920
  12169.826  12169.790  0.500  0.714483  58.1012  28.4374  6.290022
  12184.317  12184.290  0.500  0.710651  57.8596  28.4278  6.295639
  12198.985  12198.960  0.500  0.707296  57.6266  28.4085  6.319605
  12213.831  12213.800  0.500  0.703894  57.4215  28.4038  6.370346
  12228.865  12228.820  0.500  0.700118  57.2179  28.4102  6.422199
  12244.027  12244.000  0.500  0.695928  56.9911  28.4164  6.461121
  12259.384  12259.360  0.500  0.691113  56.7371  28.4263  6.509302
  12274.965  12274.890  0.500  0.685839  56.5193  28.467  6.545489
  12290.611  12290.590  0.500  0.680619  55.197  27.9464  6.427554
  12306.510  12306.460  0.500  0.675269  55.9716  28.4906  6.556764
  12322.562  12322.510  0.500  0.670212  54.8469  28.0597  6.491300
  12338.770  12338.720  0.500  0.665910  55.5272  28.5302  6.662833
  12355.154  12355.110  0.500  0.661701  55.2668  28.5162  6.709929
  12371.703  12371.670  0.500  0.657429  55.0175  28.5091  6.745248
  12388.443  12388.400  0.500  0.653047  54.8376  28.5407  6.790322
  12405.336  12405.300  0.500  0.648407  54.5551  28.5256  6.819372
  12416.705  12416.660  0.500  0.645048  54.3757  28.5275  6.834999