File: xdidata/Pt/Pt-L3-PtRu.xdi
# XDI/1.0 BlueSky/1.10.0 BMM/2023-1.0-py310-tiled
# Beamline.name: BMM (06BM) -- Beamline for Materials Measurement (NIST)
# Beamline.xray_source: NSLS-II three-pole wiggler
# Beamline.collimation: paraboloid mirror, 5 nm Rh on 30 nm Pt
# Beamline.focusing: not in use
# Beamline.harmonic_rejection: flat mirror, Pt stripe, pitch = 7.0 mrad relative to beam
# Beamline.software: Bluesky 1.10.0, Ophyd 1.7.0, DataBroker 2.0.0b13, Python 3.10.8, 2023-1.0-py310-tiled
# Detector.I0: 10 cm N2
# Detector.I1: 25 cm N2
# Detector.I2: 25 cm N2
# Element.symbol: Pt
# Element.edge: L3
# Element.reference: Pt
# Element.reference_material: Pt foil
# Facility.name: NSLS-II
# Facility.energy: 3.0
# Facility.current: 399.7
# Facility.mode: top-off
# Facility.GUP: 301027
# Facility.SAF: 310583
# Facility.cycle: 2023-2
# Mono.name: Si(111)
# Mono.d_spacing: 3.13519
# Mono.encoder_resolution: 0.0000050 deg/ct
# Mono.angle_offset: 16.0754 deg
# Mono.scan_mode: pseudo channel cut
# Mono.scan_type: step
# Mono.direction: forward in energy
# Sample.name: PtRu powder
# Sample.prep: powder on tape
# Sample.x: 119.711 mm
# Sample.y: 114.376 mm
# Sample.SDD_position: 205.000 mm
# Scan.experimenters: Bruce Ravel
# Scan.edge_energy: 11563.8
# Scan.start_time: 2023-06-27T17:05:25
# Scan.end_time: 2023-06-27T17:13:12
# Scan.transient_id: 85175
# Scan.uid: ab280ec3-581e-4457-8b6d-9ad6437a2655
# Scan.plot_hint: ln(I0/It)  --  ln($5/$6)
# Column.1: energy eV
# Column.2: requested_energy eV
# Column.3: measurement_time seconds
# Column.4: xmu
# Column.5: I0 nA
# Column.6: It nA
# Column.7: Ir nA
# ///////////
# BMM standards collection
# -----------
# energy  requested_energy  measurement_time  xmu  I0  It  Ir
  11363.812  11363.800  0.500  -0.189607  71.549  86.4866  35.9758
  11393.834  11393.800  0.500  -0.193218  69.6164  84.4549  35.3602
  11423.836  11423.800  0.500  -0.196704  70.392  85.6941  36.1053
  11453.846  11453.800  0.500  -0.200274  69.8523  85.3412  36.1779
  11483.763  11483.800  0.500  -0.203633  69.3905  85.0622  36.2574
  11513.759  11513.800  0.500  -0.206736  68.849  84.6607  36.1937
  11535.744  11535.800  0.500  -0.208222  68.4448  84.2889  35.8539
  11541.748  11541.800  0.500  -0.208091  68.3229  84.1277  35.5782
  11547.757  11547.800  0.500  -0.207334  68.1825  83.8913  35.0572
  11553.750  11553.800  0.500  -0.204569  68.0195  83.4597  33.8838
  11554.644  11554.700  0.500  -0.203743  67.9856  83.3492  33.5787
  11555.562  11555.600  0.500  -0.202745  67.9447  83.2159  33.1997
  11556.467  11556.500  0.500  -0.201507  67.8954  83.0527  32.7397
  11557.379  11557.400  0.500  -0.199994  68.066  83.1355  32.2778
  11558.285  11558.300  0.500  -0.197997  68.0056  82.8961  31.5844
  11559.180  11559.200  0.500  -0.195592  67.9328  82.6083  30.728
  11560.087  11560.100  0.500  -0.192195  67.8672  82.2487  29.6126
  11560.976  11561.000  0.500  -0.187748  67.7548  81.7482  28.1443
  11561.882  11561.900  0.500  -0.181231  67.6091  81.0426  26.179
  11562.772  11562.800  0.500  -0.172060  67.4242  80.083  23.6343
  11563.679  11563.700  0.500  -0.158811  67.1807  78.7436  20.442
  11564.580  11564.600  0.500  -0.141057  66.888  77.0209  16.967
  11565.493  11565.500  0.500  -0.118871  66.5916  74.9971  13.7094
  11566.383  11566.400  0.500  -0.096360  66.4265  73.1459  11.4506
  11567.297  11567.300  0.500  -0.079070  66.4004  71.8639  10.4565
  11568.193  11568.200  0.500  -0.071588  66.4735  71.4067  10.5012
  11569.101  11569.100  0.500  -0.073410  66.6096  71.6833  11.0798
  11569.991  11570.000  0.500  -0.081944  66.7083  72.4049  11.8155
  11570.894  11570.900  0.500  -0.093396  66.7854  73.3234  12.5241
  11571.790  11571.800  0.500  -0.104373  66.8445  74.1983  13.1231
  11572.681  11572.700  0.500  -0.113251  66.8836  74.9039  13.6038
  11573.584  11573.600  0.500  -0.119569  66.9078  75.4058  13.9949
  11574.481  11574.500  0.500  -0.124126  66.9222  75.7666  14.3173
  11575.390  11575.400  0.500  -0.126883  66.9303  75.9849  14.5344
  11576.299  11576.300  0.500  -0.128364  66.9322  76.0996  14.6417
  11577.196  11577.200  0.500  -0.128812  66.9115  76.1102  14.632
  11578.106  11578.100  0.500  -0.128839  66.8858  76.0831  14.5299
  11579.004  11579.000  0.500  -0.128232  66.8667  76.0152  14.3655
  11579.907  11579.900  0.500  -0.127151  66.8443  75.9076  14.1829
  11580.805  11580.800  0.500  -0.126300  66.8117  75.806  14.0437
  11581.692  11581.700  0.500  -0.125552  66.804  75.7407  13.9983
  11582.590  11582.600  0.500  -0.125310  66.8001  75.7179  14.0635
  11583.495  11583.500  0.500  -0.125597  66.8058  75.746  14.2335
  11584.393  11584.400  0.500  -0.126245  66.8119  75.8021  14.4474
  11585.298  11585.300  0.500  -0.127054  66.8047  75.8552  14.6253
  11586.203  11586.200  0.500  -0.127711  66.8046  75.905  14.7273
  11587.108  11587.100  0.500  -0.128188  66.7876  75.922  14.7592
  11588.013  11588.000  0.500  -0.128448  66.7652  75.9161  14.7518
  11588.795  11588.800  0.500  -0.128432  66.7507  75.8985  14.7219
  11591.815  11591.810  0.500  -0.126886  66.6449  75.6611  14.207
  11595.018  11595.000  0.500  -0.124003  66.5388  75.3232  13.4168
  11598.381  11598.360  0.500  -0.123368  66.5401  75.2768  13.6914
  11601.881  11601.880  0.500  -0.124395  66.5358  75.3493  14.1818
  11605.599  11605.580  0.500  -0.124961  66.4942  75.3449  14.3731
  11609.449  11609.450  0.500  -0.124738  66.4488  75.2766  14.5834
  11613.518  11613.500  0.500  -0.123058  66.3353  75.0219  14.2494
  11617.731  11617.710  0.500  -0.121210  66.2388  74.7744  13.7277
  11622.088  11622.090  0.500  -0.121603  66.1619  74.717  13.515
  11626.660  11626.650  0.500  -0.124115  66.1073  74.8431  13.7282
  11631.383  11631.380  0.500  -0.126912  66.0555  74.994  13.9616
  11636.293  11636.280  0.500  -0.129024  66.0084  75.0989  14.1238
  11641.371  11641.350  0.500  -0.130938  65.9502  75.1765  14.4209
  11646.602  11646.590  0.500  -0.132251  65.8784  75.1932  14.6722
  11652.032  11652.010  0.500  -0.132736  65.6259  74.9414  14.6681
  11657.597  11657.590  0.500  -0.132344  65.6848  74.9793  14.4317
  11663.375  11663.350  0.500  -0.131809  65.559  74.7956  14.1452
  11669.295  11669.280  0.500  -0.131898  65.3053  74.5129  14.0879
  11675.393  11675.380  0.500  -0.132176  65.3892  74.6293  14.1939
  11681.669  11681.650  0.500  -0.132623  65.2835  74.542  14.2146
  11688.107  11688.090  0.500  -0.133289  65.184  74.4779  14.113
  11694.701  11694.700  0.500  -0.134135  65.0692  74.4097  14.1497
  11701.517  11701.490  0.500  -0.135300  64.9696  74.3824  14.4364
  11708.472  11708.450  0.500  -0.136700  64.8922  74.3979  14.6915
  11715.585  11715.570  0.500  -0.138182  64.9911  74.6218  14.6789
  11722.874  11722.870  0.500  -0.139101  64.8725  74.5541  14.4813
  11730.363  11730.350  0.500  -0.139794  64.7394  74.4527  14.3475
  11738.018  11737.990  0.500  -0.140286  64.5933  74.3212  14.2936
  11745.834  11745.800  0.500  -0.140839  64.4271  74.171  14.3064
  11753.816  11753.790  0.500  -0.141376  64.3473  74.119  14.2109
  11761.972  11761.950  0.500  -0.141838  64.2265  74.014  14.2772
  11770.284  11770.270  0.500  -0.142617  63.8905  73.6841  14.5306
  11778.776  11778.770  0.500  -0.143979  63.8057  73.6867  14.6651
  11787.469  11787.450  0.500  -0.145431  63.8723  73.8707  14.7395
  11796.314  11796.290  0.500  -0.146749  63.7254  73.7981  14.7058
  11805.312  11805.300  0.500  -0.147933  63.2825  73.372  14.4641
  11814.518  11814.490  0.500  -0.148818  63.4125  73.5878  14.3134
  11823.867  11823.850  0.500  -0.149497  63.2686  73.4707  14.3319
  11833.407  11833.370  0.500  -0.150301  63.1218  73.3592  14.5613
  11843.085  11843.070  0.500  -0.151638  62.9918  73.306  14.8144
  11852.974  11852.950  0.500  -0.153051  62.8408  73.2337  14.8194
  11863.016  11862.990  0.500  -0.154342  62.4779  72.9049  14.7561
  11873.203  11873.200  0.500  -0.155509  62.5139  73.032  14.8561
  11883.592  11883.590  0.500  -0.156655  62.305  72.8714  14.7204
  11894.172  11894.150  0.500  -0.157869  62.1833  72.8174  14.5974
  11904.926  11904.880  0.500  -0.158944  61.9596  72.6335  14.6271
  11915.810  11915.780  0.500  -0.160071  61.7958  72.5232  14.8728
  11926.876  11926.850  0.500  -0.161320  61.6758  72.4729  14.9851
  11938.105  11938.090  0.500  -0.162686  61.5001  72.3652  14.9566
  11949.536  11949.510  0.500  -0.163931  61.3381  72.2645  14.963
  11961.107  11961.090  0.500  -0.165441  61.1858  72.194  15.0322
  11972.858  11972.850  0.500  -0.166816  60.9939  72.0665  14.9446
  11984.800  11984.780  0.500  -0.168140  60.8134  71.9484  14.9195
  11996.898  11996.880  0.500  -0.169496  60.6562  71.8599  14.9345
  12009.178  12009.150  0.500  -0.170887  60.4781  71.7487  15.0868
  12021.609  12021.590  0.500  -0.172229  60.3082  71.6431  15.2865
  12034.224  12034.210  0.500  -0.173637  60.1192  71.5192  15.2938
  12046.999  12046.990  0.500  -0.175048  59.1818  70.5035  15.0586
  12059.978  12059.950  0.500  -0.176418  59.7279  71.2516  15.2059
  12073.119  12073.080  0.500  -0.177929  59.5369  71.1311  15.207
  12086.410  12086.380  0.500  -0.179475  59.3376  71.0027  15.2246
  12099.865  12099.850  0.500  -0.180944  59.1524  70.8852  15.3288
  12113.509  12113.500  0.500  -0.182496  58.9522  70.7551  15.4265
  12127.332  12127.310  0.500  -0.184117  58.7293  70.6019  15.514
  12141.342  12141.300  0.500  -0.185722  58.5432  70.4911  15.5726
  12155.506  12155.460  0.500  -0.187154  58.3326  70.3382  15.561
  12169.846  12169.790  0.500  -0.188609  58.0815  70.1374  15.5194
  12184.323  12184.290  0.500  -0.190162  57.8945  70.0202  15.5118
  12198.991  12198.960  0.500  -0.191770  57.6346  69.8181  15.5348
  12213.838  12213.800  0.500  -0.193364  57.4498  69.7052  15.6357
  12228.871  12228.820  0.500  -0.194997  57.2168  69.5359  15.7214
  12244.060  12244.000  0.500  -0.196662  57.0093  69.3993  15.7857
  12259.404  12259.360  0.500  -0.198374  56.785  69.2447  15.8615
  12274.912  12274.890  0.500  -0.199975  56.531  69.0454  15.8843
  12290.631  12290.590  0.500  -0.201714  55.2131  67.5532  15.5409
  12306.503  12306.460  0.500  -0.203127  56.0225  68.6403  15.8036
  12322.549  12322.510  0.500  -0.204829  54.8349  67.2997  15.5756
  12338.764  12338.720  0.500  -0.206556  55.5493  68.2943  15.954
  12355.141  12355.110  0.500  -0.208354  55.2975  68.1071  16.0316
  12371.716  12371.670  0.500  -0.210089  55.0679  67.9422  16.079
  12388.436  12388.400  0.500  -0.211805  54.872  67.8167  16.1413
  12405.336  12405.300  0.500  -0.213488  54.6031  67.5981  16.1639
  12416.692  12416.660  0.500  -0.214625  54.424  67.4529  16.1689