File: xdidata/Pt/Pt-L1-PtRu.xdi
# XDI/1.0 BlueSky/1.10.0 BMM/2023-1.0-py310-tiled
# Beamline.name: BMM (06BM) -- Beamline for Materials Measurement (NIST)
# Beamline.xray_source: NSLS-II three-pole wiggler
# Beamline.collimation: paraboloid mirror, 5 nm Rh on 30 nm Pt
# Beamline.focusing: not in use
# Beamline.harmonic_rejection: flat mirror, Pt stripe, pitch = 7.0 mrad relative to beam
# Beamline.software: Bluesky 1.10.0, Ophyd 1.7.0, DataBroker 2.0.0b13, Python 3.10.8, 2023-1.0-py310-tiled
# Detector.I0: 10 cm N2
# Detector.I1: 25 cm N2
# Detector.I2: 25 cm N2
# Element.symbol: Pt
# Element.edge: L1
# Element.reference: Pt
# Element.reference_material: Pt foil
# Facility.name: NSLS-II
# Facility.energy: 3.0
# Facility.current: 399.6
# Facility.mode: top-off
# Facility.GUP: 301027
# Facility.SAF: 310583
# Facility.cycle: 2023-2
# Mono.name: Si(111)
# Mono.d_spacing: 3.13519
# Mono.encoder_resolution: 0.0000050 deg/ct
# Mono.angle_offset: 16.0754 deg
# Mono.scan_mode: pseudo channel cut
# Mono.scan_type: step
# Mono.direction: forward in energy
# Sample.name: PtRu powder
# Sample.prep: powder on tape
# Sample.x: 119.711 mm
# Sample.y: 114.376 mm
# Sample.SDD_position: 205.000 mm
# Scan.experimenters: Bruce Ravel
# Scan.edge_energy: 13880.5
# Scan.start_time: 2023-06-27T19:19:16
# Scan.end_time: 2023-06-27T19:26:35
# Scan.transient_id: 85256
# Scan.uid: fa3e1b7f-6b81-4080-976c-1bb83c9eb0f0
# Scan.plot_hint: ln(I0/It)  --  ln($5/$6)
# Column.1: energy eV
# Column.2: requested_energy eV
# Column.3: measurement_time seconds
# Column.4: xmu
# Column.5: I0 nA
# Column.6: It nA
# Column.7: Ir nA
# ///////////
# BMM standards collection
# -----------
# energy  requested_energy  measurement_time  xmu  I0  It  Ir
  13680.468  13680.500  0.500  -0.281986  38.7253  51.3404  11.8115
  13710.522  13710.500  0.500  -0.284189  38.5337  51.1991  11.8475
  13741.477  13740.500  0.500  -0.286398  38.3083  51.0122  11.9737
  13770.536  13770.500  0.500  -0.288434  38.2744  51.0709  12.0069
  13800.525  13800.500  0.500  -0.290507  38.0318  50.8525  12.0305
  13830.539  13830.500  0.500  -0.292542  37.7476  50.5754  12.081
  13852.448  13852.500  0.500  -0.293719  37.5682  50.3943  12.0723
  13858.461  13858.500  0.500  -0.293890  37.6371  50.4953  12.0827
  13864.446  13864.500  0.500  -0.294042  37.5694  50.4122  12.0384
  13870.469  13870.500  0.500  -0.293968  37.5081  50.3261  11.9633
  13871.343  13871.400  0.500  -0.293866  37.4951  50.3036  11.9457
  13872.251  13872.300  0.500  -0.293883  37.4868  50.2932  11.93
  13873.175  13873.200  0.500  -0.293765  37.4626  50.255  11.9084
  13874.050  13874.100  0.500  -0.293717  37.4118  50.1844  11.8704
  13874.966  13875.000  0.500  -0.293506  37.4216  50.1869  11.8492
  13875.875  13875.900  0.500  -0.293319  37.3931  50.1393  11.8138
  13876.766  13876.800  0.500  -0.293221  37.3976  50.1405  11.7835
  13877.675  13877.700  0.500  -0.292817  37.3993  50.1224  11.7433
  13878.567  13878.600  0.500  -0.292547  37.372  50.0724  11.6866
  13879.459  13879.500  0.500  -0.292078  37.329  49.9912  11.618
  13880.359  13880.400  0.500  -0.291690  37.2954  49.9269  11.5413
  13881.293  13881.300  0.500  -0.291087  37.2538  49.8411  11.4515
  13882.177  13882.200  0.500  -0.290471  37.2466  49.8008  11.363
  13883.078  13883.100  0.500  -0.289778  37.2225  49.7342  11.2646
  13884.004  13884.000  0.500  -0.289062  37.204  49.6739  11.1591
  13884.897  13884.900  0.500  -0.288213  37.2024  49.6296  11.0612
  13885.807  13885.800  0.500  -0.287415  37.1741  49.5522  10.957
  13886.700  13886.700  0.500  -0.286586  37.1476  49.4758  10.8491
  13887.601  13887.600  0.500  -0.285887  37.1107  49.3922  10.7425
  13888.519  13888.500  0.500  -0.285028  37.0805  49.3096  10.6342
  13889.396  13889.400  0.500  -0.284223  37.0736  49.2608  10.5322
  13890.289  13890.300  0.500  -0.283453  37.0539  49.1967  10.4197
  13891.183  13891.200  0.500  -0.282472  37.0212  49.1051  10.2998
  13892.093  13892.100  0.500  -0.281340  36.9914  49.0101  10.1756
  13892.978  13893.000  0.500  -0.280454  36.9939  48.97  10.0677
  13893.881  13893.900  0.500  -0.279503  36.9507  48.8662  9.949383
  13894.800  13894.800  0.500  -0.278647  36.9239  48.7891  9.850372
  13895.702  13895.700  0.500  -0.277852  36.9  48.7187  9.768429
  13896.614  13896.600  0.500  -0.277221  36.8619  48.6377  9.702953
  13897.499  13897.500  0.500  -0.276512  36.857  48.5967  9.664938
  13898.402  13898.400  0.500  -0.276093  36.8656  48.5878  9.645629
  13899.322  13899.300  0.500  -0.275978  36.8542  48.5671  9.636188
  13900.217  13900.200  0.500  -0.275746  36.8625  48.5669  9.643104
  13901.095  13901.100  0.500  -0.275814  36.8604  48.5674  9.656022
  13901.990  13902.000  0.500  -0.275801  36.8443  48.5455  9.676477
  13902.893  13902.900  0.500  -0.275950  36.8374  48.5437  9.703473
  13903.805  13903.800  0.500  -0.276150  36.8196  48.53  9.733445
  13904.683  13904.700  0.500  -0.276431  36.806  48.5256  9.771061
  13905.469  13905.500  0.500  -0.276699  36.8269  48.5662  9.808083
  13908.527  13908.510  0.500  -0.277417  36.819  48.5906  9.903956
  13911.731  13911.700  0.500  -0.277859  36.7781  48.5581  9.921893
  13915.080  13915.060  0.500  -0.278017  36.7811  48.5697  9.885530
  13918.583  13918.580  0.500  -0.278150  36.7178  48.4926  9.781519
  13922.316  13922.280  0.500  -0.278103  36.7095  48.4793  9.695060
  13926.170  13926.150  0.500  -0.278506  36.6668  48.4425  9.678744
  13930.204  13930.200  0.500  -0.279288  36.6498  48.4579  9.787171
  13934.419  13934.410  0.500  -0.280201  36.6502  48.5027  9.901801
  13938.814  13938.790  0.500  -0.280684  36.6109  48.4741  9.928283
  13943.348  13943.350  0.500  -0.280960  36.5739  48.4385  9.931111
  13948.115  13948.080  0.500  -0.281008  36.5402  48.3962  9.927875
  13952.996  13952.980  0.500  -0.281177  36.4884  48.3357  9.912049
  13958.067  13958.050  0.500  -0.281155  36.4535  48.2885  9.896101
  13963.312  13963.290  0.500  -0.281137  36.3735  48.1816  9.849772
  13968.706  13968.710  0.500  -0.281394  36.3077  48.1068  9.828993
  13974.326  13974.290  0.500  -0.282053  33.7501  44.7475  9.179049
  13980.071  13980.050  0.500  -0.282740  36.2837  48.1398  9.928659
  13986.008  13985.980  0.500  -0.283267  36.2554  48.1275  9.955553
  13992.078  13992.080  0.500  -0.283877  36.2165  48.1053  9.956456
  13998.394  13998.350  0.500  -0.284427  36.1633  48.061  9.952296
  14004.792  14004.790  0.500  -0.284825  36.2023  48.132  9.993650
  14011.420  14011.400  0.500  -0.285370  36.1369  48.0713  10.0081
  14018.182  14018.190  0.500  -0.285967  36.0969  48.0467  10.0038
  14025.175  14025.150  0.500  -0.286354  36.0304  47.9767  9.963730
  14032.286  14032.270  0.500  -0.286733  35.9637  47.9061  9.942914
  14039.603  14039.570  0.500  -0.287137  35.9058  47.8483  9.965423
  14047.083  14047.050  0.500  -0.287627  35.8373  47.7804  9.997434
  14054.717  14054.690  0.500  -0.288102  35.775  47.7201  10.0397
  14062.533  14062.500  0.500  -0.288683  35.6822  47.624  10.0485
  14070.513  14070.490  0.500  -0.289412  35.423  47.3124  10.0225
  14078.650  14078.650  0.500  -0.290026  35.6878  47.6955  10.1598
  14087.013  14086.970  0.500  -0.290873  35.579  47.5903  10.1404
  14095.490  14095.470  0.500  -0.291495  35.4928  47.5045  10.1063
  14104.160  14104.150  0.500  -0.291982  35.4024  47.4066  10.0881
  14113.015  14112.990  0.500  -0.292662  35.2849  47.2814  10.0716
  14122.038  14122.000  0.500  -0.293043  33.2395  44.5576  9.519832
  14131.230  14131.190  0.500  -0.293864  35.2066  47.2333  10.1468
  14140.591  14140.550  0.500  -0.294377  35.1663  47.2033  10.1908
  14150.078  14150.070  0.500  -0.295292  35.0827  47.1343  10.2064
  14159.797  14159.770  0.500  -0.295956  34.8608  46.8673  10.1598
  14169.653  14169.650  0.500  -0.296556  34.1312  45.9139  9.947860
  14179.716  14179.690  0.500  -0.297291  34.9198  47.0093  10.2163
  14189.943  14189.900  0.500  -0.297884  34.8287  46.9145  10.2191
  14200.317  14200.290  0.500  -0.298759  34.7342  46.8281  10.228
  14210.891  14210.850  0.500  -0.299518  34.6507  46.751  10.2737
  14221.605  14221.580  0.500  -0.300268  34.5707  46.6781  10.3267
  14232.504  14232.480  0.500  -0.300972  34.4791  46.5871  10.3417
  14243.580  14243.550  0.500  -0.301804  34.4005  46.5197  10.3222
  14254.814  14254.790  0.500  -0.302580  34.288  46.4035  10.3128
  14266.245  14266.210  0.500  -0.303374  34.1548  46.26  10.3153
  14277.819  14277.790  0.500  -0.304134  34.1593  46.3012  10.3458
  14289.581  14289.550  0.500  -0.304927  34.0542  46.1954  10.3468
  14301.489  14301.480  0.500  -0.305763  33.936  46.0736  10.3608
  14313.595  14313.580  0.500  -0.306518  33.869  46.0174  10.3969
  14325.875  14325.850  0.500  -0.307306  33.7814  45.9346  10.4304
  14338.346  14338.290  0.500  -0.308276  33.6823  45.8442  10.4356
  14350.975  14350.910  0.500  -0.309026  33.5881  45.7503  10.4323
  14363.725  14363.690  0.500  -0.309904  33.4918  45.6592  10.4445
  14376.670  14376.650  0.500  -0.310628  33.3472  45.495  10.4435
  14389.838  14389.780  0.500  -0.311629  33.3038  45.4813  10.4842
  14403.120  14403.080  0.500  -0.312588  33.1982  45.3806  10.5054
  14416.573  14416.550  0.500  -0.313466  33.0972  45.2823  10.5269
  14430.215  14430.200  0.500  -0.314356  33.0062  45.1979  10.5451
  14444.029  14444.010  0.500  -0.315138  32.9009  45.089  10.5499
  14458.035  14458.000  0.500  -0.316241  32.8036  45.0052  10.5541
  14472.205  14472.160  0.500  -0.317120  32.7098  44.916  10.5623
  14486.541  14486.490  0.500  -0.318095  32.5979  44.806  10.5727
  14501.034  14500.990  0.500  -0.318951  32.508  44.7207  10.6009
  14515.667  14515.660  0.500  -0.319954  32.3842  44.5952  10.621
  14530.524  14530.500  0.500  -0.320814  32.2999  44.5173  10.6559
  14545.541  14545.520  0.500  -0.321829  32.1907  44.4119  10.6676
  14560.747  14560.700  0.500  -0.322766  32.0871  44.3104  10.682
  14576.106  14576.060  0.500  -0.323705  31.9763  44.1989  10.6949
  14591.646  14591.590  0.500  -0.324834  31.8705  44.1024  10.6995
  14607.332  14607.290  0.500  -0.325747  31.7624  43.993  10.7023
  14623.193  14623.160  0.500  -0.326791  31.649  43.8817  10.722
  14639.219  14639.210  0.500  -0.327671  31.536  43.7635  10.7466
  14655.450  14655.420  0.500  -0.328813  31.4308  43.6673  10.7735
  14671.840  14671.810  0.500  -0.329755  31.3187  43.5526  10.7914
  14688.408  14688.370  0.500  -0.330703  31.2846  43.5466  10.8308
  14705.146  14705.100  0.500  -0.331863  31.1694  43.4364  10.8445
  14722.047  14722.000  0.500  -0.332748  31.071  43.3376  10.8642
  14733.383  14733.360  0.500  -0.333722  30.9789  43.2513  10.8668