File: xdidata/Se/Se-K-SeleniumMetal.xdi
# XDI/1.0 BlueSky/1.10.0 BMM/2023-1.0-py310-tiled
# Beamline.name: BMM (06BM) -- Beamline for Materials Measurement (NIST)
# Beamline.xray_source: NSLS-II three-pole wiggler
# Beamline.collimation: paraboloid mirror, 5 nm Rh on 30 nm Pt
# Beamline.focusing: not in use
# Beamline.harmonic_rejection: flat mirror, Pt stripe, pitch = 7.0 mrad relative to beam
# Beamline.software: Bluesky 1.10.0, Ophyd 1.7.0, DataBroker 2.0.0b13, Python 3.10.8, 2023-1.0-py310-tiled
# Detector.I0: 10 cm N2
# Detector.I1: 25 cm N2
# Detector.I2: 25 cm N2
# Element.symbol: Se
# Element.edge: K
# Element.reference: Se
# Element.reference_material: Se metal powder
# Facility.name: NSLS-II
# Facility.energy: 3.0
# Facility.current: 400.1
# Facility.mode: top-off
# Facility.GUP: 301027
# Facility.SAF: 310583
# Facility.cycle: 2023-2
# Mono.name: Si(111)
# Mono.d_spacing: 3.13519
# Mono.encoder_resolution: 0.0000050 deg/ct
# Mono.angle_offset: 16.0754 deg
# Mono.scan_mode: pseudo channel cut
# Mono.scan_type: step
# Mono.direction: forward in energy
# Sample.name: Se metal powder
# Sample.prep: PEG pellet
# Sample.x: 109.138 mm
# Sample.y: 153.150 mm
# Sample.SDD_position: 205.000 mm
# Scan.experimenters: Bruce Ravel
# Scan.edge_energy: 12657.8
# Scan.start_time: 2023-05-28T20:02:13
# Scan.end_time: 2023-05-28T20:10:13
# Scan.transient_id: 78973
# Scan.uid: 5adf3c73-f196-4040-a5ad-152d084f3e95
# Scan.plot_hint: ln(It/Ir)  --  ln($6/$7)
# Column.1: energy eV
# Column.2: requested_energy eV
# Column.3: measurement_time seconds
# Column.4: xmu
# Column.5: I0 nA
# Column.6: It nA
# Column.7: Ir nA
# ///////////
# sample courtesy Martin Stennett, University of Sheffield
# -----------
# energy  requested_energy  measurement_time  xmu  I0  It  Ir
  12457.799  12457.800  0.500  0.449711  54.2546  93.4733  59.6185
  12487.906  12487.800  0.500  0.446697  53.7726  92.7279  59.3215
  12517.880  12517.800  0.500  0.443848  53.5204  92.3727  59.2629
  12547.794  12547.800  0.500  0.441036  53.1471  91.8136  59.07
  12577.819  12577.800  0.500  0.438477  52.7551  91.2142  58.8348
  12607.817  12607.800  0.500  0.436763  52.3949  90.6651  58.5809
  12629.771  12629.800  0.500  0.437767  52.1241  90.2543  58.257
  12635.747  12635.800  0.500  0.439448  52.0472  90.1443  58.0883
  12641.777  12641.800  0.500  0.443221  51.913  89.9322  57.7333
  12647.757  12647.800  0.500  0.453613  51.8998  89.9217  57.1298
  12648.642  12648.700  0.500  0.456478  51.8694  89.8699  56.9335
  12649.556  12649.600  0.500  0.460435  51.8588  89.8521  56.6975
  12650.463  12650.500  0.500  0.465301  51.8543  89.8452  56.4179
  12651.370  12651.400  0.500  0.472064  51.8405  89.8153  56.0191
  12652.263  12652.300  0.500  0.481210  51.8267  89.7968  55.4976
  12653.170  12653.200  0.500  0.494135  51.8081  89.7735  54.7707
  12654.071  12654.100  0.500  0.513042  51.7926  89.749  53.7302
  12654.978  12655.000  0.500  0.543391  51.7869  89.7316  52.1139
  12655.879  12655.900  0.500  0.594575  51.7688  89.7167  49.5054
  12656.772  12656.800  0.500  0.682953  51.7552  89.6849  45.3019
  12657.666  12657.700  0.500  0.816541  51.9057  89.954  39.7559
  12658.581  12658.600  0.500  0.950794  51.8978  89.9525  34.7607
  12659.490  12659.500  0.500  0.990262  51.8908  89.941  33.4112
  12660.384  12660.400  0.500  0.931330  51.8796  89.9288  35.4346
  12661.306  12661.300  0.500  0.843850  51.8639  89.902  38.6625
  12662.187  12662.200  0.500  0.773648  51.8489  89.8755  41.462
  12663.088  12663.100  0.500  0.735062  51.8244  89.8405  43.0763
  12663.997  12664.000  0.500  0.733727  51.8193  89.8201  43.1241
  12664.871  12664.900  0.500  0.751056  51.8064  89.8087  42.3778
  12665.794  12665.800  0.500  0.769447  51.7861  89.7763  41.5906
  12666.710  12666.700  0.500  0.780177  51.7696  89.7514  41.1353
  12667.606  12667.600  0.500  0.783343  51.7506  89.7274  40.9943
  12668.501  12668.500  0.500  0.782681  51.7325  89.6939  41.0061
  12669.411  12669.400  0.500  0.781885  51.7265  89.6694  41.0276
  12670.286  12670.300  0.500  0.782200  51.709  89.6543  41.0078
  12671.181  12671.200  0.500  0.783195  51.6957  89.6309  40.9563
  12672.091  12672.100  0.500  0.783629  51.6853  89.6179  40.9326
  12672.988  12673.000  0.500  0.783305  51.6699  89.5895  40.9329
  12673.905  12673.900  0.500  0.781528  51.6603  89.5777  41.0002
  12674.815  12674.800  0.500  0.778719  51.6386  89.544  41.1001
  12675.698  12675.700  0.500  0.775809  51.6193  89.5136  41.2059
  12676.601  12676.600  0.500  0.773310  51.6076  89.4891  41.2977
  12677.505  12677.500  0.500  0.771509  51.5928  89.4722  41.3643
  12678.374  12678.400  0.500  0.770281  51.5886  89.4582  41.4087
  12679.278  12679.300  0.500  0.769420  51.5703  89.434  41.4331
  12680.189  12680.200  0.500  0.768997  51.5538  89.4013  41.4355
  12681.079  12681.100  0.500  0.768850  51.5367  89.3812  41.4323
  12682.005  12682.000  0.500  0.768851  51.5212  89.3573  41.4212
  12682.811  12682.800  0.500  0.769034  51.5081  89.339  41.4051
  12685.862  12685.810  0.500  0.769003  51.4575  89.2569  41.3684
  12689.048  12689.000  0.500  0.769002  51.4156  89.1858  41.3354
  12692.418  12692.360  0.500  0.769042  51.3744  89.125  41.3056
  12695.938  12695.880  0.500  0.770000  51.3356  89.0675  41.2394
  12699.635  12699.580  0.500  0.771236  51.2814  88.9848  41.1502
  12703.475  12703.450  0.500  0.770311  51.2338  88.9167  41.1568
  12707.522  12707.500  0.500  0.765602  51.1818  88.8301  41.3108
  12711.740  12711.710  0.500  0.762600  51.1307  88.7492  41.3972
  12716.103  12716.090  0.500  0.762126  51.0727  88.66  41.3753
  12720.680  12720.650  0.500  0.761938  51.0122  88.568  41.3401
  12725.401  12725.380  0.500  0.761101  50.9512  88.4761  41.3318
  12730.288  12730.280  0.500  0.760886  50.8847  88.3723  41.2922
  12735.378  12735.350  0.500  0.761623  50.7527  88.1524  41.1591
  12740.613  12740.590  0.500  0.762088  50.7618  88.184  41.1547
  12746.029  12746.010  0.500  0.761043  50.6966  88.0849  41.1514
  12751.599  12751.590  0.500  0.759043  50.6276  87.9804  41.1849
  12757.358  12757.350  0.500  0.756129  50.558  87.8644  41.2506
  12763.300  12763.280  0.500  0.754060  50.4797  87.7452  41.28
  12769.398  12769.380  0.500  0.753564  50.4072  87.6261  41.2444
  12775.664  12775.650  0.500  0.753483  50.3258  87.5108  41.1935
  12782.108  12782.090  0.500  0.753619  50.3264  87.5203  41.1923
  12788.715  12788.700  0.500  0.754607  50.3269  87.5303  41.1564
  12795.487  12795.490  0.500  0.755861  50.2537  87.4192  41.0526
  12802.473  12802.450  0.500  0.755980  50.17  87.2917  40.9879
  12809.588  12809.570  0.500  0.754365  50.0784  87.1546  40.9896
  12816.876  12816.870  0.500  0.750850  49.9915  87.023  41.0718
  12824.380  12824.350  0.500  0.746596  49.9025  86.8687  41.1738
  12831.994  12831.990  0.500  0.743450  49.8099  86.7305  41.2378
  12839.796  12839.800  0.500  0.741885  49.703  86.5693  41.2257
  12847.825  12847.790  0.500  0.741693  49.5981  86.4069  41.1562
  12855.971  12855.950  0.500  0.742590  49.5081  86.2659  41.0522
  12864.272  12864.270  0.500  0.744018  49.4151  86.1221  40.9253
  12872.794  12872.770  0.500  0.744864  49.2936  85.9253  40.7972
  12881.472  12881.450  0.500  0.744304  49.2115  85.81  40.7653
  12890.299  12890.290  0.500  0.742298  49.1005  85.6345  40.7636
  12899.299  12899.300  0.500  0.739464  48.9545  85.4046  40.7696
  12908.500  12908.490  0.500  0.736511  48.8739  85.2729  40.8271
  12917.874  12917.850  0.500  0.733859  48.6892  84.9767  40.7933
  12927.401  12927.370  0.500  0.731778  48.473  84.6194  40.7064
  12937.066  12937.070  0.500  0.730426  48.5279  84.7355  40.8174
  12946.972  12946.950  0.500  0.729904  48.4035  84.5321  40.7407
  12957.003  12956.990  0.500  0.729989  48.3144  84.4002  40.6737
  12967.219  12967.200  0.500  0.730164  48.1952  84.2155  40.5776
  12977.613  12977.590  0.500  0.729738  48.0682  84.0155  40.4984
  12988.178  12988.150  0.500  0.728087  47.9463  83.8202  40.4711
  12998.901  12998.880  0.500  0.725531  47.8232  83.6363  40.4856
  13009.804  13009.780  0.500  0.722609  47.6967  83.4405  40.509
  13020.873  13020.850  0.500  0.719785  47.5691  83.232  40.5221
  13032.110  13032.090  0.500  0.717713  47.4306  83.0206  40.503
  13043.530  13043.510  0.500  0.716349  47.3004  82.813  40.4568
  13055.133  13055.090  0.500  0.715544  47.163  82.5955  40.3831
  13066.869  13066.850  0.500  0.714906  47.0243  82.3785  40.3027
  13078.798  13078.780  0.500  0.713901  46.8708  82.1351  40.224
  13090.884  13090.880  0.500  0.712697  46.7412  81.9277  40.1708
  13103.165  13103.150  0.500  0.710902  46.582  81.6754  40.119
  13115.589  13115.590  0.500  0.708855  46.4468  81.4686  40.0994
  13128.232  13128.210  0.500  0.706317  46.2995  81.2352  40.0862
  13141.013  13140.990  0.500  0.703864  46.1542  80.993  40.0648
  13153.986  13153.950  0.500  0.701769  45.9956  80.7337  40.0203
  13167.098  13167.080  0.500  0.700027  45.8353  80.4905  39.9693
  13180.441  13180.380  0.500  0.698779  45.6882  80.2539  39.9016
  13193.879  13193.850  0.500  0.697451  45.5275  79.998  39.8272
  13207.513  13207.500  0.500  0.696122  45.3643  79.7412  39.7522
  13221.343  13221.310  0.500  0.694576  45.185  79.4481  39.6673
  13235.341  13235.300  0.500  0.692636  45.0109  79.1752  39.6078
  13249.513  13249.460  0.500  0.690444  44.8325  78.8804  39.547
  13263.824  13263.790  0.500  0.688207  44.5887  78.4705  39.4296
  13278.336  13278.290  0.500  0.685941  43.8945  77.28  38.9194
  13292.995  13292.960  0.500  0.683948  43.6867  76.9396  38.8253
  13307.842  13307.800  0.500  0.682140  43.5199  76.6784  38.7635
  13322.854  13322.820  0.500  0.680453  43.3674  76.423  38.6996
  13338.056  13338.000  0.500  0.678888  43.2085  76.1774  38.6357
  13353.432  13353.360  0.500  0.677133  43.0928  75.9943  38.6105
  13368.939  13368.890  0.500  0.675348  42.9063  75.6955  38.5274
  13384.630  13384.590  0.500  0.673305  42.7332  75.4159  38.4636
  13400.492  13400.460  0.500  0.671233  42.6991  75.3852  38.5277
  13416.549  13416.510  0.500  0.669052  42.5597  75.1667  38.4999
  13432.716  13432.720  0.500  0.666924  42.3644  74.8442  38.4164
  13449.120  13449.110  0.500  0.664780  42.1807  74.5508  38.348
  13465.707  13465.670  0.500  0.662882  42.012  74.277  38.2797
  13482.422  13482.400  0.500  0.661101  41.5231  73.436  37.9137
  13499.339  13499.300  0.500  0.659315  41.6407  73.6762  38.1057
  13510.670  13510.660  0.500  0.658042  41.5393  73.514  38.0703