File: xdidata/Se/Se-K-SeleniumOxide.xdi
# XDI/1.0 BlueSky/1.10.0 BMM/2023-1.0-py310-tiled
# Beamline.name: BMM (06BM) -- Beamline for Materials Measurement (NIST)
# Beamline.xray_source: NSLS-II three-pole wiggler
# Beamline.collimation: paraboloid mirror, 5 nm Rh on 30 nm Pt
# Beamline.focusing: not in use
# Beamline.harmonic_rejection: flat mirror, Pt stripe, pitch = 7.0 mrad relative to beam
# Beamline.software: Bluesky 1.10.0, Ophyd 1.7.0, DataBroker 2.0.0b13, Python 3.10.8, 2023-1.0-py310-tiled
# Detector.I0: 10 cm N2
# Detector.I1: 25 cm N2
# Detector.I2: 25 cm N2
# Element.symbol: Se
# Element.edge: K
# Element.reference: Se
# Element.reference_material: Se metal powder
# Facility.name: NSLS-II
# Facility.energy: 3.0
# Facility.current: 400.8
# Facility.mode: top-off
# Facility.GUP: 301027
# Facility.SAF: 310583
# Facility.cycle: 2023-2
# Mono.name: Si(111)
# Mono.d_spacing: 3.13519
# Mono.encoder_resolution: 0.0000050 deg/ct
# Mono.angle_offset: 16.0754 deg
# Mono.scan_mode: pseudo channel cut
# Mono.scan_type: step
# Mono.direction: forward in energy
# Sample.name: SeO2
# Sample.prep: powder in PEG pellet
# Sample.x: 117.785 mm
# Sample.y: 114.695 mm
# Sample.SDD_position: 205.000 mm
# Scan.experimenters: Bruce Ravel
# Scan.edge_energy: 12657.8
# Scan.start_time: 2023-06-23T19:10:15
# Scan.end_time: 2023-06-23T19:17:53
# Scan.transient_id: 84960
# Scan.uid: 6d06eff7-3330-446d-b10c-36ee6f753758
# Scan.plot_hint: ln(I0/It)  --  ln($5/$6)
# Column.1: energy eV
# Column.2: requested_energy eV
# Column.3: measurement_time seconds
# Column.4: xmu
# Column.5: I0 nA
# Column.6: It nA
# Column.7: Ir nA
# ///////////
# sample courtesy Martin Stennett, University of Sheffield
# -----------
# energy  requested_energy  measurement_time  xmu  I0  It  Ir
  12457.786  12457.800  0.500  -0.126832  53.6979  60.9593  40.1181
  12487.851  12487.800  0.500  -0.130492  53.2838  60.711  40.0621
  12517.846  12517.800  0.500  -0.134125  53.0339  60.6462  40.1259
  12547.836  12547.800  0.500  -0.137441  52.6931  60.4566  40.1049
  12577.861  12577.800  0.500  -0.140029  52.3503  60.219  40.0427
  12607.852  12607.800  0.500  -0.142034  52.0043  59.941  39.9163
  12629.778  12629.800  0.500  -0.139608  51.7606  59.5155  39.5886
  12635.767  12635.800  0.500  -0.136932  51.6894  59.2749  39.3593
  12641.756  12641.800  0.500  -0.131540  51.5537  58.8013  38.8982
  12647.792  12647.800  0.500  -0.119357  51.55  58.0851  38.0166
  12648.642  12648.700  0.500  -0.116344  51.5535  57.9142  37.7968
  12649.542  12649.600  0.500  -0.112572  51.5143  57.6524  37.4792
  12650.449  12650.500  0.500  -0.108013  51.5231  57.3999  37.1227
  12651.370  12651.400  0.500  -0.102464  51.5138  57.0721  36.6578
  12652.263  12652.300  0.500  -0.095553  51.4988  56.6624  36.0577
  12653.135  12653.200  0.500  -0.087273  51.484  56.179  35.2933
  12654.050  12654.100  0.500  -0.076164  51.4677  55.5409  34.2154
  12654.978  12655.000  0.500  -0.061337  51.4596  54.7148  32.6469
  12655.900  12655.900  0.500  -0.040531  51.4553  53.5837  30.2914
  12656.779  12656.800  0.500  -0.011343  51.441  52.0278  26.882
  12657.687  12657.700  0.500  0.034594  51.4277  49.679  22.4015
  12658.595  12658.600  0.500  0.106606  51.4168  46.2175  18.32
  12659.496  12659.500  0.500  0.224040  51.4072  41.0889  15.6984
  12660.405  12660.400  0.500  0.439002  51.4126  33.1446  13.3058
  12661.299  12661.300  0.500  0.821717  51.3939  22.5967  9.719158
  12662.180  12662.200  0.500  1.437855  51.3845  12.2005  5.572472
  12663.081  12663.100  0.500  2.195899  51.3963  5.718277  2.744034
  12663.990  12664.000  0.500  2.370909  51.3749  4.798203  2.338879
  12664.899  12664.900  0.500  1.827288  51.3514  8.259822  3.975538
  12665.773  12665.800  0.500  1.288475  51.3308  14.1514  6.731840
  12666.689  12666.700  0.500  0.950660  51.3173  19.8334  9.364620
  12667.585  12667.600  0.500  0.807272  51.3171  22.8912  10.7861
  12668.466  12668.500  0.500  0.764037  51.3073  23.898  11.2655
  12669.418  12669.400  0.500  0.760248  51.2664  23.9696  11.3041
  12670.307  12670.300  0.500  0.765600  51.2752  23.8458  11.239
  12671.223  12671.200  0.500  0.771012  51.2549  23.7077  11.1637
  12672.091  12672.100  0.500  0.777165  51.2461  23.5582  11.0898
  12673.002  12673.000  0.500  0.786985  51.2317  23.3214  10.9826
  12673.891  12673.900  0.500  0.800054  51.2112  23.0094  10.8553
  12674.780  12674.800  0.500  0.813111  51.2161  22.7131  10.7445
  12675.705  12675.700  0.500  0.820278  51.1909  22.5399  10.6935
  12676.594  12676.600  0.500  0.817660  51.1855  22.5965  10.7508
  12677.484  12677.500  0.500  0.804431  51.1663  22.8888  10.9076
  12678.395  12678.400  0.500  0.783189  51.1471  23.3715  11.1507
  12679.292  12679.300  0.500  0.759228  51.1376  23.9338  11.4297
  12680.189  12680.200  0.500  0.735692  51.1306  24.5005  11.7051
  12681.100  12681.100  0.500  0.714113  51.1139  25.0267  11.9584
  12682.005  12682.000  0.500  0.695645  51.1041  25.4883  12.1781
  12682.811  12682.800  0.500  0.680856  51.0972  25.8646  12.3548
  12685.841  12685.810  0.500  0.635433  51.2143  27.1285  12.9608
  12689.027  12689.000  0.500  0.602912  51.1765  28.0046  13.379
  12692.404  12692.360  0.500  0.575781  51.1354  28.7516  13.7359
  12695.917  12695.880  0.500  0.548188  51.1108  29.5418  14.0999
  12699.586  12699.580  0.500  0.531324  51.0561  30.0121  14.3076
  12703.496  12703.450  0.500  0.532160  51.0228  29.9675  14.2991
  12707.543  12707.500  0.500  0.548453  50.9627  29.4485  14.1191
  12711.719  12711.710  0.500  0.571958  50.908  28.7334  13.8123
  12716.124  12716.090  0.500  0.596245  50.8528  28.0136  13.4714
  12720.673  12720.650  0.500  0.617530  50.815  27.4032  13.1821
  12725.408  12725.380  0.500  0.636351  50.7558  26.861  12.929
  12730.310  12730.280  0.500  0.651355  50.6881  26.4256  12.7223
  12735.392  12735.350  0.500  0.661297  50.5704  26.1035  12.5575
  12740.620  12740.590  0.500  0.661734  50.5915  26.103  12.5514
  12746.050  12746.010  0.500  0.658462  50.5213  26.1522  12.5852
  12751.606  12751.590  0.500  0.649309  50.4608  26.361  12.7145
  12757.394  12757.350  0.500  0.636270  50.3918  26.6705  12.9013
  12763.322  12763.280  0.500  0.624274  50.324  26.956  13.0653
  12769.405  12769.380  0.500  0.612309  50.2557  27.2435  13.2118
  12775.671  12775.650  0.500  0.601126  50.1774  27.507  13.338
  12782.115  12782.090  0.500  0.592326  50.1083  27.7119  13.4372
  12788.723  12788.700  0.500  0.586904  50.0375  27.8231  13.4772
  12795.522  12795.490  0.500  0.584758  49.9606  27.8401  13.4633
  12802.465  12802.450  0.500  0.586193  49.8826  27.7568  13.425
  12809.581  12809.570  0.500  0.589425  49.7985  27.6205  13.3819
  12816.876  12816.870  0.500  0.593289  49.7182  27.4696  13.3506
  12824.373  12824.350  0.500  0.596679  49.6262  27.326  13.3373
  12831.994  12831.990  0.500  0.598526  49.5516  27.2346  13.3325
  12839.818  12839.800  0.500  0.598826  49.4457  27.1682  13.3223
  12847.825  12847.790  0.500  0.598623  49.3575  27.1253  13.3033
  12855.971  12855.950  0.500  0.597156  49.2812  27.1231  13.2898
  12864.287  12864.270  0.500  0.592750  49.2119  27.2046  13.3103
  12872.787  12872.770  0.500  0.587862  49.085  27.2674  13.3274
  12881.472  12881.450  0.500  0.582385  49.0203  27.381  13.3902
  12890.321  12890.290  0.500  0.576959  48.9164  27.4716  13.4617
  12899.306  12899.300  0.500  0.572133  48.7825  27.529  13.5276
  12908.492  12908.490  0.500  0.568108  48.7037  27.5954  13.5997
  12917.874  12917.850  0.500  0.565223  48.5298  27.5762  13.6254
  12927.401  12927.370  0.500  0.562840  48.3119  27.5179  13.6256
  12937.095  12937.070  0.500  0.560951  48.3926  27.616  13.6902
  12946.950  12946.950  0.500  0.559425  48.2805  27.5941  13.6866
  12957.025  12956.990  0.500  0.557802  48.202  27.594  13.6837
  12967.241  12967.200  0.500  0.556035  48.0873  27.577  13.6715
  12977.591  12977.590  0.500  0.553675  47.9687  27.574  13.6773
  12988.193  12988.150  0.500  0.550991  47.8584  27.5846  13.7017
  12998.908  12998.880  0.500  0.547650  47.7418  27.6095  13.7499
  13009.796  13009.780  0.500  0.543749  47.6256  27.6499  13.8079
  13020.888  13020.850  0.500  0.539784  47.5167  27.6963  13.8709
  13032.103  13032.090  0.500  0.535657  47.3831  27.7326  13.9159
  13043.544  13043.510  0.500  0.531724  47.261  27.7701  13.9548
  13055.111  13055.090  0.500  0.527879  47.1356  27.8032  13.9808
  13066.869  13066.850  0.500  0.524162  47.0085  27.8314  14.0047
  13078.783  13078.780  0.500  0.520424  46.8714  27.8542  14.0271
  13090.877  13090.880  0.500  0.517049  46.7573  27.8803  14.0568
  13103.165  13103.150  0.500  0.513753  46.611  27.8848  14.0837
  13115.619  13115.590  0.500  0.510447  46.4855  27.9019  14.1232
  13128.225  13128.210  0.500  0.507013  46.364  27.9246  14.1675
  13140.991  13140.990  0.500  0.503541  46.2197  27.9346  14.2055
  13153.986  13153.950  0.500  0.500072  46.0814  27.9478  14.2413
  13167.082  13167.080  0.500  0.496334  45.9328  27.962  14.2712
  13180.418  13180.380  0.500  0.492621  45.8028  27.9866  14.3033
  13193.879  13193.850  0.500  0.488576  45.8225  28.1121  14.3816
  13207.513  13207.500  0.500  0.484642  45.6751  28.1321  14.4119
  13221.336  13221.310  0.500  0.480766  45.5189  28.1448  14.4389
  13235.295  13235.300  0.500  0.476821  45.3642  28.16  14.4759
  13249.483  13249.460  0.500  0.472892  45.1899  28.1622  14.505
  13263.794  13263.790  0.500  0.469118  44.9658  28.1285  14.5213
  13278.313  13278.290  0.500  0.465185  44.2815  27.8096  14.3868
  13292.964  13292.960  0.500  0.461451  44.0811  27.7873  14.4037
  13307.842  13307.800  0.500  0.457662  43.9356  27.8008  14.436
  13322.831  13322.820  0.500  0.453665  43.7922  27.821  14.4691
  13338.032  13338.000  0.500  0.449795  43.6562  27.8421  14.5024
  13353.362  13353.360  0.500  0.445885  43.5405  27.8771  14.5405
  13368.985  13368.890  0.500  0.441872  43.3648  27.8763  14.5665
  13384.583  13384.590  0.500  0.438074  43.2152  27.8858  14.602
  13400.484  13400.460  0.500  0.433949  43.0599  27.9005  14.6401
  13416.541  13416.510  0.500  0.429958  42.9296  27.9272  14.6813
  13432.747  13432.720  0.500  0.426033  42.7499  27.9198  14.7082
  13449.143  13449.110  0.500  0.422056  42.5723  27.9145  14.7348
  13465.691  13465.670  0.500  0.418100  42.4147  27.9215  14.7671
  13482.414  13482.400  0.500  0.414168  41.9487  27.7235  14.6871
  13499.299  13499.300  0.500  0.410244  42.1  27.9329  14.8255
  13510.686  13510.660  0.500  0.407373  41.9899  27.9399  14.844